  Interval     *Wavenumber(inv cm)     OLR(W/m^2/cm^-^1)
   1                 20                   0.00196917
   2                 70                   0.0196283
   3                130                   0.0569944
   4                190                   0.12374
   5                250                   0.209412
   6                305                   0.274962
   7                355                   0.319957
   8                410                   0.351448
   9                468                   0.332524
  10                520                   0.188385
  11                581                   0.11617
  12                642                   0.0980644
  13                694                   0.0850226
  14                760                   0.0716016
  15                838                   0.113933
  16                908                   0.116658
  17                970                   0.05911
  18               1032                   0.0559361
  19               1086                   0.0376129
  20               1154                   0.140487
  21               1238                   0.0410787
  22               1312                   0.00879296
  23               1400                   0.00586549
  24               1500                   0.0369421
  25               1600                   0.0399088
  26               1700                   0.0290904
  27               1800                   0.015195
  28               1900                   0.00118422
  29               2000                   0.00150752
  30               2125                   0.00267167
  31               2298                   4.70931e-05
  32               2446                   3.03886e-05
  33               2645                   0.000702184
  34               2942                   0.000253366
  35               3256                   5.20296e-05
  36               3592                   2.07813e-06
  37               3895                   3.22431e-06
  38               4285                   7.62803e-07
  39               4745                   4.70537e-08
  40               5160                   5.82127e-09
  41               5648                   1.59102e-09
  42               6158                   7.0471e-11
  43               6690                   8.70997e-12
  44               7320                   6.03014e-13
  45               7982                   2.10705e-14
  46               8582                   1.85936e-15
  47               9100                   0
  48               9500                   0
  49              10025                   0
  50              10810                   0
  51              11545                   0
  52              12330                   0
  53              13045                   0
  54              13885                   0
  55              14735                   0
*Note that these OLR data are plotted against the midpoints of their intervals
  Interval     *Wavenumber(inv cm)     OLR(W/m^2/cm^-^1)
   1                 20                   0.00196917
   2                 70                   0.0196283
   3                130                   0.0569944
   4                190                   0.12374
   5                250                   0.209412
   6                305                   0.274962
   7                355                   0.319957
   8                410                   0.35303
   9                468                   0.358647
  10                520                   0.2788
  11                581                   0.139
  12                642                   0.0980644
  13                694                   0.0850226
  14                760                   0.0921771
  15                838                   0.21484
  16                908                   0.206002
  17                970                   0.120217
  18               1032                   0.12562
  19               1086                   0.0892887
  20               1154                   0.141382
  21               1238                   0.0410787
  22               1312                   0.00879296
  23               1400                   0.00586549
  24               1500                   0.0369421
  25               1600                   0.0399088
  26               1700                   0.0290904
  27               1800                   0.0201741
  28               1900                   0.00519531
  29               2000                   0.00525146
  30               2125                   0.00267167
  31               2298                   4.70931e-05
  32               2446                   3.03886e-05
  33               2645                   0.000702184
  34               2942                   0.000253366
  35               3256                   5.20296e-05
  36               3592                   2.07813e-06
  37               3895                   3.22431e-06
  38               4285                   7.62803e-07
  39               4745                   4.70537e-08
  40               5160                   5.82127e-09
  41               5648                   1.59102e-09
  42               6158                   7.0471e-11
  43               6690                   8.70997e-12
  44               7320                   6.03014e-13
  45               7982                   2.26091e-14
  46               8582                   0
  47               9100                   0
  48               9500                   0
  49              10025                   0
  50              10810                   0
  51              11545                   0
  52              12330                   0
  53              13045                   0
  54              13885                   0
  55              14735                   0
*Note that these OLR data are plotted against the midpoints of their intervals
  Interval     *Wavenumber(inv cm)     OLR(W/m^2/cm^-^1)
   1                 20                   0.00161454
   2                 70                   0.0155648
   3                130                   0.0416302
   4                190                   0.0857253
   5                250                   0.180537
   6                305                   0.313508
   7                355                   0.44198
   8                410                   0.488006
   9                468                   0.338752
  10                520                   0.170658
  11                581                   0.0640261
  12                642                   0.0390798
  13                694                   0.0315376
  14                760                   0.035257
  15                838                   0.152758
  16                908                   0.178381
  17                970                   0.083803
  18               1032                   0.124107
  19               1086                   0.0797387
  20               1154                   0.196511
  21               1238                   0.00558861
  22               1312                   0.00119406
  23               1400                   0.000690905
  24               1500                   0.0118901
  25               1600                   0.158071
  26               1700                   0.160996
  27               1800                   0.105659
  28               1900                   0.00311646
  29               2000                   0.00568372
  30               2125                   0.00269573
  31               2298                   1.6797e-06
  32               2446                   8.1713e-07
  33               2645                   0.00792726
  34               2942                   0.00522714
  35               3256                   0.000716829
  36               3592                   1.4847e-05
  37               3895                   0.000130172
  38               4285                   5.00963e-05
  39               4745                   3.77294e-06
  40               5160                   5.94584e-07
  41               5648                   5.0453e-07
  42               6158                   1.80828e-08
  43               6690                   6.17142e-09
  44               7320                   1.01233e-09
  45               7982                   6.0206e-11
  46               8582                   9.94202e-12
  47               9100                   1.38999e-12
  48               9500                   2.26711e-13
  49              10025                   4.13441e-14
  50              10810                   1.17846e-15
  51              11545                   0
  52              12330                   0
  53              13045                   0
  54              13885                   0
  55              14735                   0
*Note that these OLR data are plotted against the midpoints of their intervals
  Interval     *Wavenumber(inv cm)     OLR(W/m^2/cm^-^1)
   1                 20                   0.00161388
   2                 70                   0.0155628
   3                130                   0.0414046
   4                190                   0.075981
   5                250                   0.152347
   6                305                   0.260164
   7                355                   0.339096
   8                410                   0.337768
   9                468                   0.228537
  10                520                   0.120263
  11                581                   0.0581929
  12                642                   0.0390791
  13                694                   0.0315371
  14                760                   0.0299902
  15                838                   0.0946702
  16                908                   0.125237
  17                970                   0.06065
  18               1032                   0.0806063
  19               1086                   0.0547464
  20               1154                   0.0939202
  21               1238                   0.00321275
  22               1312                   0.00118632
  23               1400                   0.000685736
  24               1500                   0.0040849
  25               1600                   0.0545215
  26               1700                   0.0504464
  27               1800                   0.0309004
  28               1900                   0.00121424
  29               2000                   0.00143091
  30               2125                   0.000423061
  31               2298                   1.46545e-06
  32               2446                   6.33497e-07
  33               2645                   0.00118703
  34               2942                   0.000694286
  35               3256                   7.11671e-05
  36               3592                   1.07445e-06
  37               3895                   7.97186e-06
  38               4285                   2.70942e-06
  39               4745                   1.2608e-07
  40               5160                   1.43843e-08
  41               5648                   1.03828e-08
  42               6158                   2.07628e-10
  43               6690                   5.6555e-11
  44               7320                   6.40001e-12
  45               7982                   2.27074e-13
  46               8582                   2.61373e-14
  47               9100                   4.03588e-15
  48               9500                   0
  49              10025                   0
  50              10810                   0
  51              11545                   0
  52              12330                   0
  53              13045                   0
  54              13885                   0
  55              14735                   0
*Note that these OLR data are plotted against the midpoints of their intervals
  Interval     *Wavenumber(inv cm)     OLR(W/m^2/cm^-^1)
   1                 20                   0.00161429
   2                 70                   0.0155651
   3                130                   0.0414223
   4                190                   0.0715497
   5                250                   0.117054
   6                305                   0.18959
   7                355                   0.228423
   8                410                   0.204854
   9                468                   0.132848
  10                520                   0.0905569
  11                581                   0.0577
  12                642                   0.0390804
  13                694                   0.0315379
  14                760                   0.0293133
  15                838                   0.0450511
  16                908                   0.066119
  17                970                   0.0361543
  18               1032                   0.0466378
  19               1086                   0.033524
  20               1154                   0.0269721
  21               1238                   0.00286947
  22               1312                   0.00118967
  23               1400                   0.00068782
  24               1500                   0.00109885
  25               1600                   0.0111075
  26               1700                   0.00976596
  27               1800                   0.00605128
  28               1900                   0.000292362
  29               2000                   0.000222948
  30               2125                   4.20432e-05
  31               2298                   1.47793e-06
  32               2446                   6.42929e-07
  33               2645                   8.82757e-05
  34               2942                   4.11437e-05
  35               3256                   5.82831e-06
  36               3592                   3.68722e-08
  37               3895                   1.77061e-07
  38               4285                   4.27824e-08
  39               4745                   1.55714e-09
  40               5160                   1.24083e-10
  41               5648                   4.64362e-11
  42               6158                   7.20444e-13
  43               6690                   1.00637e-13
  44               7320                   5.46903e-15
  45               7982                   1.49588e-16
  46               8582                   0
  47               9100                   0
  48               9500                   0
  49              10025                   0
  50              10810                   0
  51              11545                   0
  52              12330                   0
  53              13045                   0
  54              13885                   0
  55              14735                   0
*Note that these OLR data are plotted against the midpoints of their intervals
  Interval     *Wavenumber(inv cm)     OLR(W/m^2/cm^-^1)
   1                 20                   0.00161454
   2                 70                   0.0155648
   3                130                   0.0416302
   4                190                   0.0857253
   5                250                   0.180537
   6                305                   0.313508
   7                355                   0.44198
   8                410                   0.488006
   9                468                   0.338752
  10                520                   0.170658
  11                581                   0.0640261
  12                642                   0.0390798
  13                694                   0.0315376
  14                760                   0.035257
  15                838                   0.152758
  16                908                   0.178381
  17                970                   0.083803
  18               1032                   0.124107
  19               1086                   0.0797387
  20               1154                   0.196511
  21               1238                   0.00558861
  22               1312                   0.00119406
  23               1400                   0.000690905
  24               1500                   0.0118901
  25               1600                   0.158071
  26               1700                   0.160996
  27               1800                   0.105659
  28               1900                   0.00311646
  29               2000                   0.00568372
  30               2125                   0.00269573
  31               2298                   1.6797e-06
  32               2446                   8.1713e-07
  33               2645                   0.00792726
  34               2942                   0.00522714
  35               3256                   0.000716829
  36               3592                   1.4847e-05
  37               3895                   0.000130172
  38               4285                   5.00963e-05
  39               4745                   3.77294e-06
  40               5160                   5.94584e-07
  41               5648                   5.0453e-07
  42               6158                   1.80828e-08
  43               6690                   6.17142e-09
  44               7320                   1.01233e-09
  45               7982                   6.0206e-11
  46               8582                   9.94202e-12
  47               9100                   1.38999e-12
  48               9500                   2.26711e-13
  49              10025                   4.13441e-14
  50              10810                   1.17846e-15
  51              11545                   0
  52              12330                   0
  53              13045                   0
  54              13885                   0
  55              14735                   0
*Note that these OLR data are plotted against the midpoints of their intervals
  Interval     *Wavenumber(inv cm)     OLR(W/m^2/cm^-^1)
   1                 20                   0.00161454
   2                 70                   0.0155648
   3                130                   0.0416302
   4                190                   0.0857253
   5                250                   0.180537
   6                305                   0.313508
   7                355                   0.44198
   8                410                   0.488006
   9                468                   0.338752
  10                520                   0.170658
  11                581                   0.0640261
  12                642                   0.0390798
  13                694                   0.0315376
  14                760                   0.035257
  15                838                   0.152758
  16                908                   0.178381
  17                970                   0.083803
  18               1032                   0.124107
  19               1086                   0.0797387
  20               1154                   0.196511
  21               1238                   0.00558861
  22               1312                   0.00119406
  23               1400                   0.000690905
  24               1500                   0.0118901
  25               1600                   0.158071
  26               1700                   0.160996
  27               1800                   0.105659
  28               1900                   0.00311646
  29               2000                   0.00568372
  30               2125                   0.00269573
  31               2298                   1.6797e-06
  32               2446                   8.1713e-07
  33               2645                   0.00792726
  34               2942                   0.00522714
  35               3256                   0.000716829
  36               3592                   1.4847e-05
  37               3895                   0.000130172
  38               4285                   5.00963e-05
  39               4745                   3.77294e-06
  40               5160                   5.94584e-07
  41               5648                   5.0453e-07
  42               6158                   1.80828e-08
  43               6690                   6.17142e-09
  44               7320                   1.01233e-09
  45               7982                   6.0206e-11
  46               8582                   9.94202e-12
  47               9100                   1.38999e-12
  48               9500                   2.26711e-13
  49              10025                   4.13441e-14
  50              10810                   1.17846e-15
  51              11545                   0
  52              12330                   0
  53              13045                   0
  54              13885                   0
  55              14735                   0
*Note that these OLR data are plotted against the midpoints of their intervals
  Interval     *Wavenumber(inv cm)     OLR(W/m^2/cm^-^1)
   1                 20                   0.00220961
   2                 70                   0.0208034
   3                130                   0.0682043
   4                190                   0.14583
   5                250                   0.237756
   6                305                   0.312838
   7                355                   0.368095
   8                410                   0.413132
   9                468                   0.430661
  10                520                   0.359668
  11                581                   0.184602
  12                642                   0.0981031
  13                694                   0.0850386
  14                760                   0.134016
  15                838                   0.293391
  16                908                   0.271999
  17                970                   0.177761
  18               1032                   0.181789
  19               1086                   0.134045
  20               1154                   0.2111
  21               1238                   0.0905212
  22               1312                   0.02754
  23               1400                   0.0200069
  24               1500                   0.0688754
  25               1600                   0.0677539
  26               1700                   0.0507764
  27               1800                   0.0361421
  28               1900                   0.0110437
  29               2000                   0.0109376
  30               2125                   0.00629304
  31               2298                   0.000228336
  32               2446                   0.00023016
  33               2645                   0.00175064
  34               2942                   0.000663142
  35               3256                   0.000151121
  36               3592                   6.79037e-06
  37               3895                   1.20201e-05
  38               4285                   3.10914e-06
  39               4745                   2.21271e-07
  40               5160                   3.18772e-08
  41               5648                   1.00845e-08
  42               6158                   5.40568e-10
  43               6690                   7.79032e-11
  44               7320                   6.66067e-12
  45               7982                   3.0533e-13
  46               8582                   2.60311e-14
  47               9100                   2.04636e-15
  48               9500                   0
  49              10025                   0
  50              10810                   0
  51              11545                   0
  52              12330                   0
  53              13045                   0
  54              13885                   0
  55              14735                   0
*Note that these OLR data are plotted against the midpoints of their intervals
  Interval     *Wavenumber(inv cm)     OLR(W/m^2/cm^-^1)
   1                 20                   0.00193482
   2                 70                   0.0196006
   3                130                   0.053248
   4                190                   0.101554
   5                250                   0.170139
   6                305                   0.218399
   7                355                   0.247765
   8                410                   0.264469
   9                468                   0.256029
  10                520                   0.188892
  11                581                   0.116794
  12                642                   0.0980644
  13                694                   0.0850226
  14                760                   0.0723135
  15                838                   0.127018
  16                908                   0.127088
  17                970                   0.0710801
  18               1032                   0.0712761
  19               1086                   0.050387
  20               1154                   0.06744
  21               1238                   0.0149004
  22               1312                   0.00663167
  23               1400                   0.00428549
  24               1500                   0.0125682
  25               1600                   0.0147482
  26               1700                   0.010167
  27               1800                   0.00670293
  28               1900                   0.00165433
  29               2000                   0.00148809
  30               2125                   0.000623434
  31               2298                   2.93889e-05
  32               2446                   1.24112e-05
  33               2645                   0.000130142
  34               2942                   4.1177e-05
  35               3256                   7.96309e-06
  36               3592                   2.40053e-07
  37               3895                   2.78416e-07
  38               4285                   5.38449e-08
  39               4745                   2.57586e-09
  40               5160                   2.45607e-10
  41               5648                   4.86414e-11
  42               6158                   1.59565e-12
  43               6690                   1.40024e-13
  44               7320                   6.07191e-15
  45               7982                   0
  46               8582                   0
  47               9100                   0
  48               9500                   0
  49              10025                   0
  50              10810                   0
  51              11545                   0
  52              12330                   0
  53              13045                   0
  54              13885                   0
  55              14735                   0
*Note that these OLR data are plotted against the midpoints of their intervals
  Interval     *Wavenumber(inv cm)     OLR(W/m^2/cm^-^1)
   1                 20                   0.00161388
   2                 70                   0.0155628
   3                130                   0.0414046
   4                190                   0.075981
   5                250                   0.152347
   6                305                   0.260164
   7                355                   0.339096
   8                410                   0.337768
   9                468                   0.228537
  10                520                   0.120263
  11                581                   0.0581929
  12                642                   0.0390791
  13                694                   0.0315371
  14                760                   0.0299902
  15                838                   0.0946702
  16                908                   0.125237
  17                970                   0.06065
  18               1032                   0.0806063
  19               1086                   0.0547464
  20               1154                   0.0939202
  21               1238                   0.00321275
  22               1312                   0.00118632
  23               1400                   0.000685736
  24               1500                   0.0040849
  25               1600                   0.0545215
  26               1700                   0.0504464
  27               1800                   0.0309004
  28               1900                   0.00121424
  29               2000                   0.00143091
  30               2125                   0.000423061
  31               2298                   1.46545e-06
  32               2446                   6.33497e-07
  33               2645                   0.00118703
  34               2942                   0.000694286
  35               3256                   7.11671e-05
  36               3592                   1.07445e-06
  37               3895                   7.97186e-06
  38               4285                   2.70942e-06
  39               4745                   1.2608e-07
  40               5160                   1.43843e-08
  41               5648                   1.03828e-08
  42               6158                   2.07628e-10
  43               6690                   5.6555e-11
  44               7320                   6.40001e-12
  45               7982                   2.27074e-13
  46               8582                   2.61373e-14
  47               9100                   4.03588e-15
  48               9500                   0
  49              10025                   0
  50              10810                   0
  51              11545                   0
  52              12330                   0
  53              13045                   0
  54              13885                   0
  55              14735                   0
*Note that these OLR data are plotted against the midpoints of their intervals
  Interval     *Wavenumber(inv cm)     OLR(W/m^2/cm^-^1)
   1                 20                   0.00161481
   2                 70                   0.0155685
   3                130                   0.0414491
   4                190                   0.0756515
   5                250                   0.151327
   6                305                   0.258689
   7                355                   0.336856
   8                410                   0.33498
   9                468                   0.226327
  10                520                   0.119442
  11                581                   0.0584996
  12                642                   0.0390825
  13                694                   0.0315393
  14                760                   0.030159
  15                838                   0.0934648
  16                908                   0.124044
  17                970                   0.0600687
  18               1032                   0.0798471
  19               1086                   0.0542483
  20               1154                   0.091703
  21               1238                   0.00317561
  22               1312                   0.00119387
  23               1400                   0.000690441
  24               1500                   0.00390008
  25               1600                   0.0530654
  26               1700                   0.0490803
  27               1800                   0.0300918
  28               1900                   0.00118547
  29               2000                   0.00138833
  30               2125                   0.000406264
  31               2298                   1.49578e-06
  32               2446                   6.56909e-07
  33               2645                   0.00113681
  34               2942                   0.000662247
  35               3256                   6.79973e-05
  36               3592                   1.02003e-06
  37               3895                   7.48294e-06
  38               4285                   2.52738e-06
  39               4745                   1.17313e-07
  40               5160                   1.33015e-08
  41               5648                   9.48569e-09
  42               6158                   1.89241e-10
  43               6690                   5.09234e-11
  44               7320                   5.68934e-12
  45               7982                   1.98525e-13
  46               8582                   2.43311e-14
  47               9100                   1.98952e-15
  48               9500                   0
  49              10025                   0
  50              10810                   0
  51              11545                   0
  52              12330                   0
  53              13045                   0
  54              13885                   0
  55              14735                   0
*Note that these OLR data are plotted against the midpoints of their intervals
  Interval     *Wavenumber(inv cm)     OLR(W/m^2/cm^-^1)
   1                 20                   0.00161429
   2                 70                   0.0155651
   3                130                   0.0414223
   4                190                   0.0715497
   5                250                   0.117054
   6                305                   0.18959
   7                355                   0.228423
   8                410                   0.204854
   9                468                   0.132848
  10                520                   0.0905569
  11                581                   0.0577
  12                642                   0.0390804
  13                694                   0.0315379
  14                760                   0.0293133
  15                838                   0.0450511
  16                908                   0.066119
  17                970                   0.0361543
  18               1032                   0.0466378
  19               1086                   0.033524
  20               1154                   0.0269721
  21               1238                   0.00286947
  22               1312                   0.00118967
  23               1400                   0.00068782
  24               1500                   0.00109885
  25               1600                   0.0111075
  26               1700                   0.00976596
  27               1800                   0.00605128
  28               1900                   0.000292362
  29               2000                   0.000222948
  30               2125                   4.20432e-05
  31               2298                   1.47793e-06
  32               2446                   6.42929e-07
  33               2645                   8.82757e-05
  34               2942                   4.11437e-05
  35               3256                   5.82831e-06
  36               3592                   3.68722e-08
  37               3895                   1.77061e-07
  38               4285                   4.27824e-08
  39               4745                   1.55714e-09
  40               5160                   1.24083e-10
  41               5648                   4.64362e-11
  42               6158                   7.20444e-13
  43               6690                   1.00637e-13
  44               7320                   5.46903e-15
  45               7982                   1.49588e-16
  46               8582                   0
  47               9100                   0
  48               9500                   0
  49              10025                   0
  50              10810                   0
  51              11545                   0
  52              12330                   0
  53              13045                   0
  54              13885                   0
  55              14735                   0
*Note that these OLR data are plotted against the midpoints of their intervals
  Interval     *Wavenumber(inv cm)     OLR(W/m^2/cm^-^1)
   1                 20                   0.00161388
   2                 70                   0.0155628
   3                130                   0.0414046
   4                190                   0.075981
   5                250                   0.152347
   6                305                   0.260164
   7                355                   0.339096
   8                410                   0.337768
   9                468                   0.228537
  10                520                   0.120263
  11                581                   0.0581929
  12                642                   0.0390791
  13                694                   0.0315371
  14                760                   0.0299902
  15                838                   0.0946702
  16                908                   0.125237
  17                970                   0.06065
  18               1032                   0.0806063
  19               1086                   0.0547464
  20               1154                   0.0939202
  21               1238                   0.00321275
  22               1312                   0.00118632
  23               1400                   0.000685736
  24               1500                   0.0040849
  25               1600                   0.0545215
  26               1700                   0.0504464
  27               1800                   0.0309004
  28               1900                   0.00121424
  29               2000                   0.00143091
  30               2125                   0.000423061
  31               2298                   1.46545e-06
  32               2446                   6.33497e-07
  33               2645                   0.00118703
  34               2942                   0.000694286
  35               3256                   7.11671e-05
  36               3592                   1.07445e-06
  37               3895                   7.97186e-06
  38               4285                   2.70942e-06
  39               4745                   1.2608e-07
  40               5160                   1.43843e-08
  41               5648                   1.03828e-08
  42               6158                   2.07628e-10
  43               6690                   5.6555e-11
  44               7320                   6.40001e-12
  45               7982                   2.27074e-13
  46               8582                   2.61373e-14
  47               9100                   4.03588e-15
  48               9500                   0
  49              10025                   0
  50              10810                   0
  51              11545                   0
  52              12330                   0
  53              13045                   0
  54              13885                   0
  55              14735                   0
*Note that these OLR data are plotted against the midpoints of their intervals
  Interval     *Wavenumber(inv cm)     OLR(W/m^2/cm^-^1)
   1                 20                   0.00161388
   2                 70                   0.0155628
   3                130                   0.0414046
   4                190                   0.075981
   5                250                   0.152347
   6                305                   0.260164
   7                355                   0.339096
   8                410                   0.337768
   9                468                   0.228537
  10                520                   0.120263
  11                581                   0.0581929
  12                642                   0.0390791
  13                694                   0.0315371
  14                760                   0.0299902
  15                838                   0.0946702
  16                908                   0.125237
  17                970                   0.06065
  18               1032                   0.0806063
  19               1086                   0.0547464
  20               1154                   0.0939202
  21               1238                   0.00321275
  22               1312                   0.00118632
  23               1400                   0.000685736
  24               1500                   0.0040849
  25               1600                   0.0545215
  26               1700                   0.0504464
  27               1800                   0.0309004
  28               1900                   0.00121424
  29               2000                   0.00143091
  30               2125                   0.000423061
  31               2298                   1.46545e-06
  32               2446                   6.33497e-07
  33               2645                   0.00118703
  34               2942                   0.000694286
  35               3256                   7.11671e-05
  36               3592                   1.07445e-06
  37               3895                   7.97186e-06
  38               4285                   2.70942e-06
  39               4745                   1.2608e-07
  40               5160                   1.43843e-08
  41               5648                   1.03828e-08
  42               6158                   2.07628e-10
  43               6690                   5.6555e-11
  44               7320                   6.40001e-12
  45               7982                   2.27074e-13
  46               8582                   2.61373e-14
  47               9100                   4.03588e-15
  48               9500                   0
  49              10025                   0
  50              10810                   0
  51              11545                   0
  52              12330                   0
  53              13045                   0
  54              13885                   0
  55              14735                   0
*Note that these OLR data are plotted against the midpoints of their intervals
  Interval     *Wavenumber(inv cm)     OLR(W/m^2/cm^-^1)
   1                 20                   0.00197144
   2                 70                   0.0196329
   3                130                   0.0571554
   4                190                   0.12417
   5                250                   0.209702
   6                305                   0.27507
   7                355                   0.319997
   8                410                   0.352817
   9                468                   0.346917
  10                520                   0.213068
  11                581                   0.121766
  12                642                   0.0980644
  13                694                   0.0850226
  14                760                   0.0766717
  15                838                   0.138284
  16                908                   0.143007
  17                970                   0.0701271
  18               1032                   0.0693113
  19               1086                   0.0472839
  20               1154                   0.141109
  21               1238                   0.0417382
  22               1312                   0.00893436
  23               1400                   0.00596949
  24               1500                   0.0372077
  25               1600                   0.0399227
  26               1700                   0.0290918
  27               1800                   0.0184135
  28               1900                   0.00198612
  29               2000                   0.00209098
  30               2125                   0.00269636
  31               2298                   4.82207e-05
  32               2446                   3.15319e-05
  33               2645                   0.000703832
  34               2942                   0.000253367
  35               3256                   5.22672e-05
  36               3592                   2.1039e-06
  37               3895                   3.23182e-06
  38               4285                   7.63035e-07
  39               4745                   4.725e-08
  40               5160                   5.85608e-09
  41               5648                   1.5912e-09
  42               6158                   7.09204e-11
  43               6690                   8.73499e-12
  44               7320                   6.01507e-13
  45               7982                   2.26091e-14
  46               8582                   1.80624e-15
  47               9100                   0
  48               9500                   0
  49              10025                   0
  50              10810                   0
  51              11545                   0
  52              12330                   0
  53              13045                   0
  54              13885                   0
  55              14735                   0
*Note that these OLR data are plotted against the midpoints of their intervals
  Interval     *Wavenumber(inv cm)     OLR(W/m^2/cm^-^1)
   1                 20                   0.00204442
   2                 70                   0.0203495
   3                130                   0.0557348
   4                190                   0.0925398
   5                250                   0.122433
   6                305                   0.141008
   7                355                   0.151148
   8                410                   0.155014
   9                468                   0.152213
  10                520                   0.146226
  11                581                   0.135311
  12                642                   0.112475
  13                694                   0.0999894
  14                760                   0.099708
  15                838                   0.115223
  16                908                   0.0967734
  17                970                   0.0807817
  18               1032                   0.0540197
  19               1086                   0.0603681
  20               1154                   0.0511465
  21               1238                   0.0409332
  22               1312                   0.0281407
  23               1400                   0.013231
  24               1500                   0.00379064
  25               1600                   0.00207984
  26               1700                   0.00126953
  27               1800                   0.00135188
  28               1900                   0.00168935
  29               2000                   0.00192689
  30               2125                   0.000874405
  31               2298                   0.000123911
  32               2446                   4.51699e-05
  33               2645                   2.00824e-05
  34               2942                   1.06777e-05
  35               3256                   2.0013e-06
  36               3592                   1.53742e-07
  37               3895                   5.76413e-08
  38               4285                   2.72649e-08
  39               4745                   7.04312e-09
  40               5160                   7.48717e-10
  41               5648                   1.17557e-10
  42               6158                   7.74195e-12
  43               6690                   9.41635e-13
  44               7320                   1.06366e-14
  45               7982                   2.2545e-14
  46               8582                   0
  47               9100                   1.98952e-15
  48               9500                   0
  49              10025                   0
  50              10810                   0
  51              11545                   0
  52              12330                   0
  53              13045                   0
  54              13885                   0
  55              14735                   0
*Note that these OLR data are plotted against the midpoints of their intervals
  Interval     *Wavenumber(inv cm)     OLR(W/m^2/cm^-^1)
   1                 20                   0.00241249
   2                 70                   0.0223073
   3                130                   0.0608558
   4                190                   0.106883
   5                250                   0.153992
   6                305                   0.194271
   7                355                   0.229516
   8                410                   0.271932
   9                468                   0.297189
  10                520                   0.318534
  11                581                   0.307022
  12                642                   0.15603
  13                694                   0.136608
  14                760                   0.30002
  15                838                   0.328427
  16                908                   0.296918
  17                970                   0.264367
  18               1032                   0.124047
  19               1086                   0.201869
  20               1154                   0.166633
  21               1238                   0.118068
  22               1312                   0.0746689
  23               1400                   0.0319925
  24               1500                   0.0132129
  25               1600                   0.0104537
  26               1700                   0.00561608
  27               1800                   0.00596232
  28               1900                   0.006823
  29               2000                   0.00768621
  30               2125                   0.00691813
  31               2298                   0.0019791
  32               2446                   0.00228962
  33               2645                   0.00121939
  34               2942                   0.000280905
  35               3256                   3.92622e-05
  36               3592                   1.26553e-06
  37               3895                   6.36197e-07
  38               4285                   1.1789e-06
  39               4745                   1.74279e-07
  40               5160                   8.3462e-09
  41               5648                   1.87137e-09
  42               6158                   3.46166e-10
  43               6690                   1.795e-11
  44               7320                   3.59061e-13
  45               7982                   7.82131e-14
  46               8582                   3.71873e-15
  47               9100                   0
  48               9500                   0
  49              10025                   0
  50              10810                   0
  51              11545                   0
  52              12330                   0
  53              13045                   0
  54              13885                   0
  55              14735                   0
*Note that these OLR data are plotted against the midpoints of their intervals
  Interval     *Wavenumber(inv cm)     OLR(W/m^2/cm^-^1)
   1                 20                   0.00241249
   2                 70                   0.0223073
   3                130                   0.0608558
   4                190                   0.106883
   5                250                   0.153992
   6                305                   0.194271
   7                355                   0.229516
   8                410                   0.271932
   9                468                   0.297189
  10                520                   0.318534
  11                581                   0.307022
  12                642                   0.15603
  13                694                   0.136608
  14                760                   0.300014
  15                838                   0.184795
  16                908                   0.16349
  17                970                   0.144588
  18               1032                   0.0799919
  19               1086                   0.114162
  20               1154                   0.0964151
  21               1238                   0.11802
  22               1312                   0.0746689
  23               1400                   0.0319925
  24               1500                   0.0132129
  25               1600                   0.0104537
  26               1700                   0.00561608
  27               1800                   0.00596232
  28               1900                   0.006823
  29               2000                   0.00768621
  30               2125                   0.00691813
  31               2298                   0.0019791
  32               2446                   0.00228962
  33               2645                   0.00121939
  34               2942                   0.000280905
  35               3256                   3.92622e-05
  36               3592                   1.26553e-06
  37               3895                   6.36197e-07
  38               4285                   1.1789e-06
  39               4745                   1.74279e-07
  40               5160                   8.3462e-09
  41               5648                   1.87137e-09
  42               6158                   3.46166e-10
  43               6690                   1.79517e-11
  44               7320                   3.59104e-13
  45               7982                   7.82131e-14
  46               8582                   3.6656e-15
  47               9100                   0
  48               9500                   0
  49              10025                   0
  50              10810                   0
  51              11545                   0
  52              12330                   0
  53              13045                   0
  54              13885                   0
  55              14735                   0
*Note that these OLR data are plotted against the midpoints of their intervals
  Interval     *Wavenumber(inv cm)     OLR(W/m^2/cm^-^1)
   1                 20                   0.00227917
   2                 70                   0.021178
   3                130                   0.0568206
   4                190                   0.0962381
   5                250                   0.132896
   6                305                   0.162775
   7                355                   0.185142
   8                410                   0.201895
   9                468                   0.211979
  10                520                   0.216384
  11                581                   0.211109
  12                642                   0.141941
  13                694                   0.126502
  14                760                   0.181897
  15                838                   0.184795
  16                908                   0.16349
  17                970                   0.144588
  18               1032                   0.0799919
  19               1086                   0.114162
  20               1154                   0.0964152
  21               1238                   0.0726749
  22               1312                   0.0499086
  23               1400                   0.0230953
  24               1500                   0.00873851
  25               1600                   0.00550127
  26               1700                   0.00343546
  27               1800                   0.00345912
  28               1900                   0.0038864
  29               2000                   0.00421273
  30               2125                   0.00323908
  31               2298                   0.000791512
  32               2446                   0.00078932
  33               2645                   0.000349528
  34               2942                   9.54131e-05
  35               3256                   1.37709e-05
  36               3592                   5.1062e-07
  37               3895                   2.86077e-07
  38               4285                   3.79823e-07
  39               4745                   1.00824e-07
  40               5160                   4.4708e-09
  41               5648                   1.18619e-09
  42               6158                   2.48987e-10
  43               6690                   1.21733e-11
  44               7320                   1.60626e-13
  45               7982                   7.36827e-14
  46               8582                   1.85936e-15
  47               9100                   0
  48               9500                   0
  49              10025                   0
  50              10810                   0
  51              11545                   0
  52              12330                   0
  53              13045                   0
  54              13885                   0
  55              14735                   0
*Note that these OLR data are plotted against the midpoints of their intervals
  Interval     *Wavenumber(inv cm)     OLR(W/m^2/cm^-^1)
   1                 20                   0.00241249
   2                 70                   0.0223073
   3                130                   0.0608558
   4                190                   0.106883
   5                250                   0.153992
   6                305                   0.194271
   7                355                   0.229516
   8                410                   0.271932
   9                468                   0.297189
  10                520                   0.318534
  11                581                   0.307022
  12                642                   0.15603
  13                694                   0.136608
  14                760                   0.30002
  15                838                   0.320195
  16                908                   0.290548
  17                970                   0.259442
  18               1032                   0.122436
  19               1086                   0.198894
  20               1154                   0.164485
  21               1238                   0.118068
  22               1312                   0.0746689
  23               1400                   0.0319925
  24               1500                   0.0132129
  25               1600                   0.0104537
  26               1700                   0.00561608
  27               1800                   0.00596232
  28               1900                   0.006823
  29               2000                   0.00768621
  30               2125                   0.00691813
  31               2298                   0.0019791
  32               2446                   0.00228962
  33               2645                   0.00121939
  34               2942                   0.000280905
  35               3256                   3.92622e-05
  36               3592                   1.26553e-06
  37               3895                   6.36197e-07
  38               4285                   1.1789e-06
  39               4745                   1.74279e-07
  40               5160                   8.3462e-09
  41               5648                   1.87137e-09
  42               6158                   3.46166e-10
  43               6690                   1.79518e-11
  44               7320                   3.58975e-13
  45               7982                   7.82986e-14
  46               8582                   3.71873e-15
  47               9100                   0
  48               9500                   0
  49              10025                   0
  50              10810                   0
  51              11545                   0
  52              12330                   0
  53              13045                   0
  54              13885                   0
  55              14735                   0
*Note that these OLR data are plotted against the midpoints of their intervals
  Interval     *Wavenumber(inv cm)     OLR(W/m^2/cm^-^1)
   1                 20                   0.00241249
   2                 70                   0.0223073
   3                130                   0.0608558
   4                190                   0.106883
   5                250                   0.153992
   6                305                   0.194271
   7                355                   0.229516
   8                410                   0.271932
   9                468                   0.297189
  10                520                   0.318534
  11                581                   0.307022
  12                642                   0.15603
  13                694                   0.136608
  14                760                   0.300014
  15                838                   0.336255
  16                908                   0.300109
  17                970                   0.266032
  18               1032                   0.124946
  19               1086                   0.207228
  20               1154                   0.178285
  21               1238                   0.11802
  22               1312                   0.0746689
  23               1400                   0.0319925
  24               1500                   0.0132129
  25               1600                   0.0104537
  26               1700                   0.00561608
  27               1800                   0.00596232
  28               1900                   0.006823
  29               2000                   0.00768621
  30               2125                   0.00691813
  31               2298                   0.0019791
  32               2446                   0.00228962
  33               2645                   0.00121939
  34               2942                   0.000280905
  35               3256                   3.92622e-05
  36               3592                   1.26553e-06
  37               3895                   6.36197e-07
  38               4285                   1.1789e-06
  39               4745                   1.74279e-07
  40               5160                   8.3462e-09
  41               5648                   1.87137e-09
  42               6158                   3.46166e-10
  43               6690                   1.79517e-11
  44               7320                   3.58975e-13
  45               7982                   7.82986e-14
  46               8582                   3.71873e-15
  47               9100                   0
  48               9500                   0
  49              10025                   0
  50              10810                   0
  51              11545                   0
  52              12330                   0
  53              13045                   0
  54              13885                   0
  55              14735                   0
*Note that these OLR data are plotted against the midpoints of their intervals
  Interval     *Wavenumber(inv cm)     OLR(W/m^2/cm^-^1)
   1                 20                   0.00227917
   2                 70                   0.021178
   3                130                   0.0568206
   4                190                   0.0962381
   5                250                   0.132896
   6                305                   0.162775
   7                355                   0.185142
   8                410                   0.201895
   9                468                   0.211979
  10                520                   0.216384
  11                581                   0.211109
  12                642                   0.141941
  13                694                   0.126502
  14                760                   0.181897
  15                838                   0.336255
  16                908                   0.300109
  17                970                   0.266032
  18               1032                   0.124946
  19               1086                   0.207228
  20               1154                   0.178285
  21               1238                   0.0726749
  22               1312                   0.0499086
  23               1400                   0.0230953
  24               1500                   0.00873851
  25               1600                   0.00550127
  26               1700                   0.00343546
  27               1800                   0.00345912
  28               1900                   0.0038864
  29               2000                   0.00421273
  30               2125                   0.00323908
  31               2298                   0.000791512
  32               2446                   0.00078932
  33               2645                   0.000349528
  34               2942                   9.54131e-05
  35               3256                   1.37709e-05
  36               3592                   5.1062e-07
  37               3895                   2.86077e-07
  38               4285                   3.79823e-07
  39               4745                   1.00824e-07
  40               5160                   4.4708e-09
  41               5648                   1.18619e-09
  42               6158                   2.48985e-10
  43               6690                   1.21733e-11
  44               7320                   1.62176e-13
  45               7982                   7.364e-14
  46               8582                   1.91249e-15
  47               9100                   0
  48               9500                   0
  49              10025                   0
  50              10810                   0
  51              11545                   0
  52              12330                   0
  53              13045                   0
  54              13885                   0
  55              14735                   0
*Note that these OLR data are plotted against the midpoints of their intervals
  Interval     *Wavenumber(inv cm)     OLR(W/m^2/cm^-^1)
   1                 20                   0.00241249
   2                 70                   0.0223073
   3                130                   0.0608558
   4                190                   0.106883
   5                250                   0.153992
   6                305                   0.194271
   7                355                   0.229516
   8                410                   0.271932
   9                468                   0.297189
  10                520                   0.318534
  11                581                   0.307022
  12                642                   0.15603
  13                694                   0.136608
  14                760                   0.300014
  15                838                   0.336255
  16                908                   0.300109
  17                970                   0.266032
  18               1032                   0.124946
  19               1086                   0.207228
  20               1154                   0.178285
  21               1238                   0.11802
  22               1312                   0.0746689
  23               1400                   0.0319925
  24               1500                   0.0132129
  25               1600                   0.0104537
  26               1700                   0.00561608
  27               1800                   0.00596232
  28               1900                   0.006823
  29               2000                   0.00768621
  30               2125                   0.00691813
  31               2298                   0.0019791
  32               2446                   0.00228962
  33               2645                   0.00121939
  34               2942                   0.000280905
  35               3256                   3.92622e-05
  36               3592                   1.26553e-06
  37               3895                   6.36197e-07
  38               4285                   1.1789e-06
  39               4745                   1.74279e-07
  40               5160                   8.3462e-09
  41               5648                   1.87137e-09
  42               6158                   3.46166e-10
  43               6690                   1.79517e-11
  44               7320                   3.58975e-13
  45               7982                   7.82986e-14
  46               8582                   3.71873e-15
  47               9100                   0
  48               9500                   0
  49              10025                   0
  50              10810                   0
  51              11545                   0
  52              12330                   0
  53              13045                   0
  54              13885                   0
  55              14735                   0
*Note that these OLR data are plotted against the midpoints of their intervals
  Interval     *Wavenumber(inv cm)     OLR(W/m^2/cm^-^1)
   1                 20                   0.00227917
   2                 70                   0.021178
   3                130                   0.0568206
   4                190                   0.0962381
   5                250                   0.132896
   6                305                   0.162775
   7                355                   0.185142
   8                410                   0.201895
   9                468                   0.211979
  10                520                   0.216384
  11                581                   0.211109
  12                642                   0.141941
  13                694                   0.126502
  14                760                   0.181897
  15                838                   0.336255
  16                908                   0.300109
  17                970                   0.266032
  18               1032                   0.124946
  19               1086                   0.207228
  20               1154                   0.178285
  21               1238                   0.0726749
  22               1312                   0.0499086
  23               1400                   0.0230953
  24               1500                   0.00873851
  25               1600                   0.00550127
  26               1700                   0.00343546
  27               1800                   0.00345912
  28               1900                   0.0038864
  29               2000                   0.00421273
  30               2125                   0.00323908
  31               2298                   0.000791512
  32               2446                   0.00078932
  33               2645                   0.000349528
  34               2942                   9.54131e-05
  35               3256                   1.37709e-05
  36               3592                   5.1062e-07
  37               3895                   2.86077e-07
  38               4285                   3.79823e-07
  39               4745                   1.00824e-07
  40               5160                   4.4708e-09
  41               5648                   1.18619e-09
  42               6158                   2.48985e-10
  43               6690                   1.21733e-11
  44               7320                   1.62176e-13
  45               7982                   7.364e-14
  46               8582                   1.91249e-15
  47               9100                   0
  48               9500                   0
  49              10025                   0
  50              10810                   0
  51              11545                   0
  52              12330                   0
  53              13045                   0
  54              13885                   0
  55              14735                   0
*Note that these OLR data are plotted against the midpoints of their intervals
  Interval     *Wavenumber(inv cm)     OLR(W/m^2/cm^-^1)
   1                 20                   0.00227917
   2                 70                   0.021178
   3                130                   0.0568206
   4                190                   0.0962381
   5                250                   0.132896
   6                305                   0.162775
   7                355                   0.185142
   8                410                   0.201895
   9                468                   0.211979
  10                520                   0.216384
  11                581                   0.211109
  12                642                   0.141941
  13                694                   0.126502
  14                760                   0.181897
  15                838                   0.184795
  16                908                   0.16349
  17                970                   0.144588
  18               1032                   0.0799919
  19               1086                   0.114162
  20               1154                   0.0964152
  21               1238                   0.0726749
  22               1312                   0.0499086
  23               1400                   0.0230953
  24               1500                   0.00873851
  25               1600                   0.00550127
  26               1700                   0.00343546
  27               1800                   0.00345912
  28               1900                   0.0038864
  29               2000                   0.00421273
  30               2125                   0.00323908
  31               2298                   0.000791512
  32               2446                   0.00078932
  33               2645                   0.000349528
  34               2942                   9.54131e-05
  35               3256                   1.37709e-05
  36               3592                   5.1062e-07
  37               3895                   2.86077e-07
  38               4285                   3.79823e-07
  39               4745                   1.00824e-07
  40               5160                   4.4708e-09
  41               5648                   1.18619e-09
  42               6158                   2.48987e-10
  43               6690                   1.21733e-11
  44               7320                   1.60626e-13
  45               7982                   7.36827e-14
  46               8582                   1.85936e-15
  47               9100                   0
  48               9500                   0
  49              10025                   0
  50              10810                   0
  51              11545                   0
  52              12330                   0
  53              13045                   0
  54              13885                   0
  55              14735                   0
*Note that these OLR data are plotted against the midpoints of their intervals
  Interval     *Wavenumber(inv cm)     OLR(W/m^2/cm^-^1)
   1                 20                   0.00241249
   2                 70                   0.0223073
   3                130                   0.0608558
   4                190                   0.106883
   5                250                   0.153992
   6                305                   0.194271
   7                355                   0.229516
   8                410                   0.271932
   9                468                   0.297189
  10                520                   0.318534
  11                581                   0.307022
  12                642                   0.15603
  13                694                   0.136608
  14                760                   0.300014
  15                838                   0.336255
  16                908                   0.300109
  17                970                   0.266032
  18               1032                   0.124946
  19               1086                   0.207228
  20               1154                   0.178285
  21               1238                   0.11802
  22               1312                   0.0746689
  23               1400                   0.0319925
  24               1500                   0.0132129
  25               1600                   0.0104537
  26               1700                   0.00561608
  27               1800                   0.00596232
  28               1900                   0.006823
  29               2000                   0.00768621
  30               2125                   0.00691813
  31               2298                   0.0019791
  32               2446                   0.00228962
  33               2645                   0.00121939
  34               2942                   0.000280905
  35               3256                   3.92622e-05
  36               3592                   1.26553e-06
  37               3895                   6.36197e-07
  38               4285                   1.1789e-06
  39               4745                   1.74279e-07
  40               5160                   8.3462e-09
  41               5648                   1.87137e-09
  42               6158                   3.46166e-10
  43               6690                   1.79517e-11
  44               7320                   3.58975e-13
  45               7982                   7.82986e-14
  46               8582                   3.71873e-15
  47               9100                   0
  48               9500                   0
  49              10025                   0
  50              10810                   0
  51              11545                   0
  52              12330                   0
  53              13045                   0
  54              13885                   0
  55              14735                   0
*Note that these OLR data are plotted against the midpoints of their intervals
  Interval     *Wavenumber(inv cm)     OLR(W/m^2/cm^-^1)
   1                 20                   0.00227917
   2                 70                   0.021178
   3                130                   0.0568206
   4                190                   0.0962381
   5                250                   0.132896
   6                305                   0.162775
   7                355                   0.185142
   8                410                   0.201895
   9                468                   0.211979
  10                520                   0.216384
  11                581                   0.211109
  12                642                   0.141941
  13                694                   0.126502
  14                760                   0.181897
  15                838                   0.336255
  16                908                   0.300109
  17                970                   0.266032
  18               1032                   0.124946
  19               1086                   0.207228
  20               1154                   0.178285
  21               1238                   0.0726749
  22               1312                   0.0499086
  23               1400                   0.0230953
  24               1500                   0.00873851
  25               1600                   0.00550127
  26               1700                   0.00343546
  27               1800                   0.00345912
  28               1900                   0.0038864
  29               2000                   0.00421273
  30               2125                   0.00323908
  31               2298                   0.000791512
  32               2446                   0.00078932
  33               2645                   0.000349528
  34               2942                   9.54131e-05
  35               3256                   1.37709e-05
  36               3592                   5.1062e-07
  37               3895                   2.86077e-07
  38               4285                   3.79823e-07
  39               4745                   1.00824e-07
  40               5160                   4.4708e-09
  41               5648                   1.18619e-09
  42               6158                   2.48985e-10
  43               6690                   1.21733e-11
  44               7320                   1.62176e-13
  45               7982                   7.364e-14
  46               8582                   1.91249e-15
  47               9100                   0
  48               9500                   0
  49              10025                   0
  50              10810                   0
  51              11545                   0
  52              12330                   0
  53              13045                   0
  54              13885                   0
  55              14735                   0
*Note that these OLR data are plotted against the midpoints of their intervals
  Interval     *Wavenumber(inv cm)     OLR(W/m^2/cm^-^1)
   1                 20                   0.00227917
   2                 70                   0.021178
   3                130                   0.0568206
   4                190                   0.0962381
   5                250                   0.132896
   6                305                   0.162775
   7                355                   0.185142
   8                410                   0.201895
   9                468                   0.211979
  10                520                   0.216384
  11                581                   0.211109
  12                642                   0.141941
  13                694                   0.126502
  14                760                   0.181897
  15                838                   0.184795
  16                908                   0.16349
  17                970                   0.144588
  18               1032                   0.0799919
  19               1086                   0.114162
  20               1154                   0.0964152
  21               1238                   0.0726749
  22               1312                   0.0499086
  23               1400                   0.0230953
  24               1500                   0.00873851
  25               1600                   0.00550127
  26               1700                   0.00343546
  27               1800                   0.00345912
  28               1900                   0.0038864
  29               2000                   0.00421273
  30               2125                   0.00323908
  31               2298                   0.000791512
  32               2446                   0.00078932
  33               2645                   0.000349528
  34               2942                   9.54131e-05
  35               3256                   1.37709e-05
  36               3592                   5.1062e-07
  37               3895                   2.86077e-07
  38               4285                   3.79823e-07
  39               4745                   1.00824e-07
  40               5160                   4.4708e-09
  41               5648                   1.18619e-09
  42               6158                   2.48987e-10
  43               6690                   1.21733e-11
  44               7320                   1.60626e-13
  45               7982                   7.36827e-14
  46               8582                   1.85936e-15
  47               9100                   0
  48               9500                   0
  49              10025                   0
  50              10810                   0
  51              11545                   0
  52              12330                   0
  53              13045                   0
  54              13885                   0
  55              14735                   0
*Note that these OLR data are plotted against the midpoints of their intervals
  Interval     *Wavenumber(inv cm)     OLR(W/m^2/cm^-^1)
   1                 20                   0.0016135
   2                 70                   0.0155612
   3                130                   0.0413847
   4                190                   0.0714736
   5                250                   0.11704
   6                305                   0.192307
   7                355                   0.240734
   8                410                   0.266726
   9                468                   0.131589
  10                520                   0.089907
  11                581                   0.0570533
  12                642                   0.039076
  13                694                   0.031535
  14                760                   0.0287854
  15                838                   0.0443814
  16                908                   0.0645531
  17                970                   0.0327545
  18               1032                   0.0392397
  19               1086                   0.0256547
  20               1154                   0.0263786
  21               1238                   0.00284864
  22               1312                   0.00118315
  23               1400                   0.00068374
  24               1500                   0.00107884
  25               1600                   0.0112968
  26               1700                   0.0100778
  27               1800                   0.00609661
  28               1900                   0.000229005
  29               2000                   0.000178315
  30               2125                   1.05647e-05
  31               2298                   1.35988e-06
  32               2446                   5.68654e-07
  33               2645                   8.19809e-05
  34               2942                   4.1123e-05
  35               3256                   2.82454e-06
  36               3592                   1.16101e-08
  37               3895                   1.13489e-07
  38               4285                   4.21719e-08
  39               4745                   1.562e-09
  40               5160                   6.37496e-11
  41               5648                   4.56175e-11
  42               6158                   6.62806e-13
  43               6690                   8.8652e-14
  44               7320                   4.54317e-15
  45               7982                   1.70958e-16
  46               8582                   0
  47               9100                   0
  48               9500                   0
  49              10025                   0
  50              10810                   0
  51              11545                   0
  52              12330                   0
  53              13045                   0
  54              13885                   0
  55              14735                   0
*Note that these OLR data are plotted against the midpoints of their intervals
  Interval     *Wavenumber(inv cm)     OLR(W/m^2/cm^-^1)
   1                 20                   0.0016135
   2                 70                   0.0155612
   3                130                   0.0413847
   4                190                   0.0714735
   5                250                   0.11697
   6                305                   0.190118
   7                355                   0.226175
   8                410                   0.202356
   9                468                   0.131589
  10                520                   0.089907
  11                581                   0.0570533
  12                642                   0.039076
  13                694                   0.031535
  14                760                   0.0287854
  15                838                   0.0443814
  16                908                   0.0645531
  17                970                   0.0327545
  18               1032                   0.0392397
  19               1086                   0.0256547
  20               1154                   0.0263786
  21               1238                   0.00284864
  22               1312                   0.00118315
  23               1400                   0.00068374
  24               1500                   0.00107884
  25               1600                   0.0112968
  26               1700                   0.0100778
  27               1800                   0.00609661
  28               1900                   0.000229005
  29               2000                   0.000178315
  30               2125                   1.05647e-05
  31               2298                   1.35988e-06
  32               2446                   5.68654e-07
  33               2645                   8.19809e-05
  34               2942                   4.1123e-05
  35               3256                   2.82454e-06
  36               3592                   1.16101e-08
  37               3895                   1.13489e-07
  38               4285                   4.21719e-08
  39               4745                   1.562e-09
  40               5160                   6.37496e-11
  41               5648                   4.56175e-11
  42               6158                   6.62776e-13
  43               6690                   8.86757e-14
  44               7320                   4.54317e-15
  45               7982                   1.49588e-16
  46               8582                   0
  47               9100                   0
  48               9500                   0
  49              10025                   0
  50              10810                   0
  51              11545                   0
  52              12330                   0
  53              13045                   0
  54              13885                   0
  55              14735                   0
*Note that these OLR data are plotted against the midpoints of their intervals
  Interval     *Wavenumber(inv cm)     OLR(W/m^2/cm^-^1)
   1                 20                   0.00193718
   2                 70                   0.0196007
   3                130                   0.0539191
   4                190                   0.11337
   5                250                   0.20478
   6                305                   0.273891
   7                355                   0.31915
   8                410                   0.350864
   9                468                   0.34672
  10                520                   0.242265
  11                581                   0.123233
  12                642                   0.0980641
  13                694                   0.0850224
  14                760                   0.0779255
  15                838                   0.194691
  16                908                   0.197177
  17                970                   0.101735
  18               1032                   0.11266
  19               1086                   0.076033
  20               1154                   0.136957
  21               1238                   0.025341
  22               1312                   0.00680456
  23               1400                   0.00441209
  24               1500                   0.0308731
  25               1600                   0.0396784
  26               1700                   0.0291361
  27               1800                   0.0201425
  28               1900                   0.00431512
  29               2000                   0.00462416
  30               2125                   0.000302529
  31               2298                   3.06645e-05
  32               2446                   1.41974e-05
  33               2645                   0.000664367
  34               2942                   0.000253332
  35               3256                   4.5641e-05
  36               3592                   1.90814e-06
  37               3895                   2.80044e-06
  38               4285                   7.584e-07
  39               4745                   4.49186e-08
  40               5160                   5.05839e-09
  41               5648                   1.5831e-09
  42               6158                   6.51742e-11
  43               6690                   8.34333e-12
  44               7320                   5.59089e-13
  45               7982                   2.10705e-14
  46               8582                   1.85936e-15
  47               9100                   0
  48               9500                   0
  49              10025                   0
  50              10810                   0
  51              11545                   0
  52              12330                   0
  53              13045                   0
  54              13885                   0
  55              14735                   0
*Note that these OLR data are plotted against the midpoints of their intervals
  Interval     *Wavenumber(inv cm)     OLR(W/m^2/cm^-^1)
   1                 20                   0.00193718
   2                 70                   0.0196007
   3                130                   0.053909
   4                190                   0.112986
   5                250                   0.203605
   6                305                   0.272903
   7                355                   0.318527
   8                410                   0.350431
   9                468                   0.346448
  10                520                   0.242181
  11                581                   0.12323
  12                642                   0.0980641
  13                694                   0.0850224
  14                760                   0.0779245
  15                838                   0.194681
  16                908                   0.197168
  17                970                   0.101732
  18               1032                   0.112656
  19               1086                   0.0760314
  20               1154                   0.136953
  21               1238                   0.0253407
  22               1312                   0.00680456
  23               1400                   0.00441206
  24               1500                   0.0307664
  25               1600                   0.0395187
  26               1700                   0.0289898
  27               1800                   0.0201127
  28               1900                   0.00431404
  29               2000                   0.00462395
  30               2125                   0.000302526
  31               2298                   3.06644e-05
  32               2446                   1.41973e-05
  33               2645                   0.000664326
  34               2942                   0.000253321
  35               3256                   4.56366e-05
  36               3592                   1.90353e-06
  37               3895                   2.79382e-06
  38               4285                   7.58385e-07
  39               4745                   4.49184e-08
  40               5160                   5.05731e-09
  41               5648                   1.58289e-09
  42               6158                   6.51721e-11
  43               6690                   8.34333e-12
  44               7320                   5.59089e-13
  45               7982                   2.10705e-14
  46               8582                   1.85936e-15
  47               9100                   0
  48               9500                   0
  49              10025                   0
  50              10810                   0
  51              11545                   0
  52              12330                   0
  53              13045                   0
  54              13885                   0
  55              14735                   0
*Note that these OLR data are plotted against the midpoints of their intervals
  Interval     *Wavenumber(inv cm)     OLR(W/m^2/cm^-^1)
   1                 20                   0.00193718
   2                 70                   0.0196007
   3                130                   0.0539191
   4                190                   0.11337
   5                250                   0.20478
   6                305                   0.273891
   7                355                   0.31915
   8                410                   0.350864
   9                468                   0.34672
  10                520                   0.242265
  11                581                   0.123233
  12                642                   0.0980641
  13                694                   0.0850224
  14                760                   0.0779255
  15                838                   0.194691
  16                908                   0.197177
  17                970                   0.101735
  18               1032                   0.11266
  19               1086                   0.076033
  20               1154                   0.136957
  21               1238                   0.025341
  22               1312                   0.00680456
  23               1400                   0.00441209
  24               1500                   0.0308731
  25               1600                   0.0396784
  26               1700                   0.0291361
  27               1800                   0.0201425
  28               1900                   0.00431512
  29               2000                   0.00462416
  30               2125                   0.000302529
  31               2298                   3.06645e-05
  32               2446                   1.41974e-05
  33               2645                   0.000664367
  34               2942                   0.000253332
  35               3256                   4.5641e-05
  36               3592                   1.90814e-06
  37               3895                   2.80044e-06
  38               4285                   7.584e-07
  39               4745                   4.49186e-08
  40               5160                   5.05839e-09
  41               5648                   1.5831e-09
  42               6158                   6.51742e-11
  43               6690                   8.34333e-12
  44               7320                   5.59089e-13
  45               7982                   2.10705e-14
  46               8582                   1.85936e-15
  47               9100                   0
  48               9500                   0
  49              10025                   0
  50              10810                   0
  51              11545                   0
  52              12330                   0
  53              13045                   0
  54              13885                   0
  55              14735                   0
*Note that these OLR data are plotted against the midpoints of their intervals
  Interval     *Wavenumber(inv cm)     OLR(W/m^2/cm^-^1)
   1                 20                   0.00241249
   2                 70                   0.0223073
   3                130                   0.0608558
   4                190                   0.106883
   5                250                   0.153992
   6                305                   0.194272
   7                355                   0.229517
   8                410                   0.271933
   9                468                   0.297189
  10                520                   0.318534
  11                581                   0.307022
  12                642                   0.15603
  13                694                   0.136608
  14                760                   0.300014
  15                838                   0.336255
  16                908                   0.300109
  17                970                   0.266032
  18               1032                   0.124946
  19               1086                   0.207228
  20               1154                   0.178285
  21               1238                   0.11802
  22               1312                   0.0746689
  23               1400                   0.0319925
  24               1500                   0.0132129
  25               1600                   0.0104537
  26               1700                   0.00561608
  27               1800                   0.00596232
  28               1900                   0.006823
  29               2000                   0.00768621
  30               2125                   0.00691813
  31               2298                   0.0019791
  32               2446                   0.00228962
  33               2645                   0.00121939
  34               2942                   0.000280905
  35               3256                   3.92622e-05
  36               3592                   1.26553e-06
  37               3895                   6.36197e-07
  38               4285                   1.1789e-06
  39               4745                   1.74279e-07
  40               5160                   8.3462e-09
  41               5648                   1.87137e-09
  42               6158                   3.46166e-10
  43               6690                   1.795e-11
  44               7320                   3.60611e-13
  45               7982                   7.81276e-14
  46               8582                   1.91249e-15
  47               9100                   2.04636e-15
  48               9500                   0
  49              10025                   0
  50              10810                   0
  51              11545                   0
  52              12330                   0
  53              13045                   0
  54              13885                   0
  55              14735                   0
*Note that these OLR data are plotted against the midpoints of their intervals
  Interval     *Wavenumber(inv cm)     OLR(W/m^2/cm^-^1)
   1                 20                   0.00241249
   2                 70                   0.0223073
   3                130                   0.0608558
   4                190                   0.106883
   5                250                   0.153992
   6                305                   0.194272
   7                355                   0.229517
   8                410                   0.271933
   9                468                   0.297189
  10                520                   0.318534
  11                581                   0.307022
  12                642                   0.15603
  13                694                   0.136608
  14                760                   0.30002
  15                838                   0.328427
  16                908                   0.296918
  17                970                   0.264367
  18               1032                   0.124047
  19               1086                   0.201869
  20               1154                   0.166633
  21               1238                   0.118068
  22               1312                   0.0746689
  23               1400                   0.0319925
  24               1500                   0.0132129
  25               1600                   0.0104537
  26               1700                   0.00561608
  27               1800                   0.00596232
  28               1900                   0.006823
  29               2000                   0.00768621
  30               2125                   0.00691813
  31               2298                   0.0019791
  32               2446                   0.00228962
  33               2645                   0.00121939
  34               2942                   0.000280905
  35               3256                   3.92622e-05
  36               3592                   1.26553e-06
  37               3895                   6.36197e-07
  38               4285                   1.1789e-06
  39               4745                   1.74279e-07
  40               5160                   8.3462e-09
  41               5648                   1.87137e-09
  42               6158                   3.46166e-10
  43               6690                   1.79517e-11
  44               7320                   3.58975e-13
  45               7982                   7.82986e-14
  46               8582                   3.71873e-15
  47               9100                   0
  48               9500                   0
  49              10025                   0
  50              10810                   0
  51              11545                   0
  52              12330                   0
  53              13045                   0
  54              13885                   0
  55              14735                   0
*Note that these OLR data are plotted against the midpoints of their intervals
  Interval     *Wavenumber(inv cm)     OLR(W/m^2/cm^-^1)
   1                 20                   0.00241249
   2                 70                   0.0223073
   3                130                   0.0608558
   4                190                   0.106883
   5                250                   0.153992
   6                305                   0.194272
   7                355                   0.229517
   8                410                   0.271933
   9                468                   0.297189
  10                520                   0.318534
  11                581                   0.307022
  12                642                   0.15603
  13                694                   0.136608
  14                760                   0.30002
  15                838                   0.336255
  16                908                   0.300109
  17                970                   0.266032
  18               1032                   0.124946
  19               1086                   0.207228
  20               1154                   0.178285
  21               1238                   0.118068
  22               1312                   0.0746689
  23               1400                   0.0319925
  24               1500                   0.0132129
  25               1600                   0.0104537
  26               1700                   0.00561608
  27               1800                   0.00596232
  28               1900                   0.006823
  29               2000                   0.00768621
  30               2125                   0.00691813
  31               2298                   0.0019791
  32               2446                   0.00228962
  33               2645                   0.00121939
  34               2942                   0.000280905
  35               3256                   3.92622e-05
  36               3592                   1.26553e-06
  37               3895                   6.36197e-07
  38               4285                   1.1789e-06
  39               4745                   1.74279e-07
  40               5160                   8.3462e-09
  41               5648                   1.87137e-09
  42               6158                   3.46166e-10
  43               6690                   1.795e-11
  44               7320                   3.60611e-13
  45               7982                   7.81276e-14
  46               8582                   1.91249e-15
  47               9100                   1.93268e-15
  48               9500                   0
  49              10025                   0
  50              10810                   0
  51              11545                   0
  52              12330                   0
  53              13045                   0
  54              13885                   0
  55              14735                   0
*Note that these OLR data are plotted against the midpoints of their intervals
  Interval     *Wavenumber(inv cm)     OLR(W/m^2/cm^-^1)
   1                 20                   0.00231412
   2                 70                   0.0216562
   3                130                   0.057863
   4                190                   0.0978505
   5                250                   0.135581
   6                305                   0.166059
   7                355                   0.18778
   8                410                   0.203865
   9                468                   0.213306
  10                520                   0.217337
  11                581                   0.211929
  12                642                   0.142032
  13                694                   0.12655
  14                760                   0.182066
  15                838                   0.184871
  16                908                   0.163526
  17                970                   0.144605
  18               1032                   0.0800051
  19               1086                   0.114322
  20               1154                   0.0970245
  21               1238                   0.0748693
  22               1312                   0.0534923
  23               1400                   0.0273588
  24               1500                   0.0105905
  25               1600                   0.00634077
  26               1700                   0.00422279
  27               1800                   0.00402771
  28               1900                   0.00438318
  29               2000                   0.00460136
  30               2125                   0.00333596
  31               2298                   0.000793598
  32               2446                   0.000789395
  33               2645                   0.000349579
  34               2942                   0.000103153
  35               3256                   1.62038e-05
  36               3592                   6.47419e-07
  37               3895                   3.85555e-07
  38               4285                   3.92527e-07
  39               4745                   1.03341e-07
  40               5160                   5.79452e-09
  41               5648                   1.40991e-09
  42               6158                   2.49768e-10
  43               6690                   1.4695e-11
  44               7320                   2.33316e-13
  45               7982                   7.51786e-14
  46               8582                   3.77185e-15
  47               9100                   0
  48               9500                   0
  49              10025                   0
  50              10810                   0
  51              11545                   0
  52              12330                   0
  53              13045                   0
  54              13885                   0
  55              14735                   0
*Note that these OLR data are plotted against the midpoints of their intervals
  Interval     *Wavenumber(inv cm)     OLR(W/m^2/cm^-^1)
   1                 20                   0.00241249
   2                 70                   0.0223073
   3                130                   0.0608558
   4                190                   0.106883
   5                250                   0.153992
   6                305                   0.194272
   7                355                   0.229517
   8                410                   0.271933
   9                468                   0.297189
  10                520                   0.318534
  11                581                   0.307022
  12                642                   0.15603
  13                694                   0.136608
  14                760                   0.300014
  15                838                   0.184795
  16                908                   0.16349
  17                970                   0.144588
  18               1032                   0.0799919
  19               1086                   0.114162
  20               1154                   0.0964151
  21               1238                   0.11802
  22               1312                   0.0746689
  23               1400                   0.0319925
  24               1500                   0.0132129
  25               1600                   0.0104537
  26               1700                   0.00561608
  27               1800                   0.00596232
  28               1900                   0.006823
  29               2000                   0.00768621
  30               2125                   0.00691813
  31               2298                   0.0019791
  32               2446                   0.00228962
  33               2645                   0.00121939
  34               2942                   0.000280905
  35               3256                   3.92622e-05
  36               3592                   1.26553e-06
  37               3895                   6.36197e-07
  38               4285                   1.1789e-06
  39               4745                   1.74279e-07
  40               5160                   8.3462e-09
  41               5648                   1.87137e-09
  42               6158                   3.46166e-10
  43               6690                   1.795e-11
  44               7320                   3.59104e-13
  45               7982                   7.9709e-14
  46               8582                   1.85936e-15
  47               9100                   0
  48               9500                   0
  49              10025                   0
  50              10810                   0
  51              11545                   0
  52              12330                   0
  53              13045                   0
  54              13885                   0
  55              14735                   0
*Note that these OLR data are plotted against the midpoints of their intervals
  Interval     *Wavenumber(inv cm)     OLR(W/m^2/cm^-^1)
   1                 20                   0.00241249
   2                 70                   0.0223073
   3                130                   0.0608558
   4                190                   0.106883
   5                250                   0.153992
   6                305                   0.194272
   7                355                   0.229517
   8                410                   0.271933
   9                468                   0.297189
  10                520                   0.318534
  11                581                   0.307022
  12                642                   0.15603
  13                694                   0.136608
  14                760                   0.30002
  15                838                   0.328427
  16                908                   0.296918
  17                970                   0.264367
  18               1032                   0.124047
  19               1086                   0.201869
  20               1154                   0.166633
  21               1238                   0.118068
  22               1312                   0.0746689
  23               1400                   0.0319925
  24               1500                   0.0132129
  25               1600                   0.0104537
  26               1700                   0.00561608
  27               1800                   0.00596232
  28               1900                   0.006823
  29               2000                   0.00768621
  30               2125                   0.00691813
  31               2298                   0.0019791
  32               2446                   0.00228962
  33               2645                   0.00121939
  34               2942                   0.000280905
  35               3256                   3.92622e-05
  36               3592                   1.26553e-06
  37               3895                   6.36197e-07
  38               4285                   1.1789e-06
  39               4745                   1.74279e-07
  40               5160                   8.3462e-09
  41               5648                   1.87137e-09
  42               6158                   3.46166e-10
  43               6690                   1.79517e-11
  44               7320                   3.58975e-13
  45               7982                   7.82986e-14
  46               8582                   3.71873e-15
  47               9100                   0
  48               9500                   0
  49              10025                   0
  50              10810                   0
  51              11545                   0
  52              12330                   0
  53              13045                   0
  54              13885                   0
  55              14735                   0
*Note that these OLR data are plotted against the midpoints of their intervals
  Interval     *Wavenumber(inv cm)     OLR(W/m^2/cm^-^1)
   1                 20                   0.00227917
   2                 70                   0.021178
   3                130                   0.0568206
   4                190                   0.0962381
   5                250                   0.132896
   6                305                   0.162775
   7                355                   0.185142
   8                410                   0.201895
   9                468                   0.211979
  10                520                   0.216384
  11                581                   0.211109
  12                642                   0.141941
  13                694                   0.126502
  14                760                   0.181897
  15                838                   0.184795
  16                908                   0.16349
  17                970                   0.144588
  18               1032                   0.0799919
  19               1086                   0.114162
  20               1154                   0.0964152
  21               1238                   0.0726749
  22               1312                   0.0499086
  23               1400                   0.0230953
  24               1500                   0.00873851
  25               1600                   0.00550127
  26               1700                   0.00343546
  27               1800                   0.00345912
  28               1900                   0.0038864
  29               2000                   0.00421273
  30               2125                   0.00323908
  31               2298                   0.000791512
  32               2446                   0.00078932
  33               2645                   0.000349528
  34               2942                   9.54131e-05
  35               3256                   1.37709e-05
  36               3592                   5.1062e-07
  37               3895                   2.86077e-07
  38               4285                   3.79823e-07
  39               4745                   1.00824e-07
  40               5160                   4.4708e-09
  41               5648                   1.18619e-09
  42               6158                   2.48987e-10
  43               6690                   1.21733e-11
  44               7320                   1.62133e-13
  45               7982                   7.21441e-14
  46               8582                   1.85936e-15
  47               9100                   2.04636e-15
  48               9500                   0
  49              10025                   0
  50              10810                   0
  51              11545                   0
  52              12330                   0
  53              13045                   0
  54              13885                   0
  55              14735                   0
*Note that these OLR data are plotted against the midpoints of their intervals
  Interval     *Wavenumber(inv cm)     OLR(W/m^2/cm^-^1)
   1                 20                   0.00239293
   2                 70                   0.0222631
   3                130                   0.0607155
   4                190                   0.106527
   5                250                   0.153137
   6                305                   0.193358
   7                355                   0.228491
   8                410                   0.269308
   9                468                   0.29409
  10                520                   0.313417
  11                581                   0.302571
  12                642                   0.155843
  13                694                   0.136523
  14                760                   0.293255
  15                838                   0.320444
  16                908                   0.290523
  17                970                   0.259588
  18               1032                   0.122654
  19               1086                   0.199418
  20               1154                   0.164842
  21               1238                   0.116659
  22               1312                   0.0731314
  23               1400                   0.0312436
  24               1500                   0.0128672
  25               1600                   0.00990641
  26               1700                   0.00544595
  27               1800                   0.00572164
  28               1900                   0.00663466
  29               2000                   0.00749291
  30               2125                   0.00682716
  31               2298                   0.00195825
  32               2446                   0.00226447
  33               2645                   0.00120095
  34               2942                   0.00027654
  35               3256                   3.74525e-05
  36               3592                   1.06636e-06
  37               3895                   4.05558e-07
  38               4285                   1.16387e-06
  39               4745                   1.73608e-07
  40               5160                   7.14581e-09
  41               5648                   1.84347e-09
  42               6158                   3.45428e-10
  43               6690                   1.77466e-11
  44               7320                   1.15151e-13
  45               7982                   7.82131e-14
  46               8582                   3.82498e-15
  47               9100                   0
  48               9500                   0
  49              10025                   0
  50              10810                   0
  51              11545                   0
  52              12330                   0
  53              13045                   0
  54              13885                   0
  55              14735                   0
*Note that these OLR data are plotted against the midpoints of their intervals
  Interval     *Wavenumber(inv cm)     OLR(W/m^2/cm^-^1)
   1                 20                   0.00239293
   2                 70                   0.0222631
   3                130                   0.0607155
   4                190                   0.106527
   5                250                   0.153137
   6                305                   0.193358
   7                355                   0.228491
   8                410                   0.269308
   9                468                   0.29409
  10                520                   0.313417
  11                581                   0.302571
  12                642                   0.155843
  13                694                   0.136523
  14                760                   0.293255
  15                838                   0.320444
  16                908                   0.290523
  17                970                   0.259588
  18               1032                   0.122654
  19               1086                   0.199418
  20               1154                   0.164842
  21               1238                   0.116659
  22               1312                   0.0731314
  23               1400                   0.0312436
  24               1500                   0.0128672
  25               1600                   0.00990641
  26               1700                   0.00544595
  27               1800                   0.00572164
  28               1900                   0.00663466
  29               2000                   0.00749291
  30               2125                   0.00682716
  31               2298                   0.00195825
  32               2446                   0.00226447
  33               2645                   0.00120095
  34               2942                   0.00027654
  35               3256                   3.74525e-05
  36               3592                   1.06636e-06
  37               3895                   4.05558e-07
  38               4285                   1.16387e-06
  39               4745                   1.73608e-07
  40               5160                   7.14581e-09
  41               5648                   1.84347e-09
  42               6158                   3.45428e-10
  43               6690                   1.77466e-11
  44               7320                   1.15151e-13
  45               7982                   7.82131e-14
  46               8582                   3.82498e-15
  47               9100                   0
  48               9500                   0
  49              10025                   0
  50              10810                   0
  51              11545                   0
  52              12330                   0
  53              13045                   0
  54              13885                   0
  55              14735                   0
*Note that these OLR data are plotted against the midpoints of their intervals
  Interval     *Wavenumber(inv cm)     OLR(W/m^2/cm^-^1)
   1                 20                   0.00239293
   2                 70                   0.0222631
   3                130                   0.0607155
   4                190                   0.106527
   5                250                   0.153137
   6                305                   0.193358
   7                355                   0.228491
   8                410                   0.269308
   9                468                   0.29409
  10                520                   0.313417
  11                581                   0.302571
  12                642                   0.155843
  13                694                   0.136523
  14                760                   0.293255
  15                838                   0.320444
  16                908                   0.290523
  17                970                   0.259588
  18               1032                   0.122654
  19               1086                   0.199418
  20               1154                   0.164842
  21               1238                   0.116659
  22               1312                   0.0731314
  23               1400                   0.0312436
  24               1500                   0.0128672
  25               1600                   0.00990641
  26               1700                   0.00544595
  27               1800                   0.00572164
  28               1900                   0.00663466
  29               2000                   0.00749291
  30               2125                   0.00682716
  31               2298                   0.00195825
  32               2446                   0.00226447
  33               2645                   0.00120095
  34               2942                   0.00027654
  35               3256                   3.74525e-05
  36               3592                   1.06636e-06
  37               3895                   4.05558e-07
  38               4285                   1.16387e-06
  39               4745                   1.73608e-07
  40               5160                   7.14581e-09
  41               5648                   1.84347e-09
  42               6158                   3.45428e-10
  43               6690                   1.77466e-11
  44               7320                   1.15151e-13
  45               7982                   7.82131e-14
  46               8582                   3.82498e-15
  47               9100                   0
  48               9500                   0
  49              10025                   0
  50              10810                   0
  51              11545                   0
  52              12330                   0
  53              13045                   0
  54              13885                   0
  55              14735                   0
*Note that these OLR data are plotted against the midpoints of their intervals
  Interval     *Wavenumber(inv cm)     OLR(W/m^2/cm^-^1)
   1                 20                   0.00232388
   2                 70                   0.0213709
   3                130                   0.0581891
   4                190                   0.100381
   5                250                   0.143854
   6                305                   0.18071
   7                355                   0.21347
   8                410                   0.254371
   9                468                   0.278589
  10                520                   0.298781
  11                581                   0.273772
  12                642                   0.140014
  13                694                   0.126793
  14                760                   0.266198
  15                838                   0.318084
  16                908                   0.289462
  17                970                   0.257915
  18               1032                   0.121996
  19               1086                   0.196663
  20               1154                   0.162206
  21               1238                   0.111932
  22               1312                   0.067458
  23               1400                   0.0260904
  24               1500                   0.00964977
  25               1600                   0.00759661
  26               1700                   0.00390056
  27               1800                   0.00443877
  28               1900                   0.00546973
  29               2000                   0.00670985
  30               2125                   0.00634813
  31               2298                   0.00186977
  32               2446                   0.00203015
  33               2645                   0.00120046
  34               2942                   0.000262911
  35               3256                   3.09228e-05
  36               3592                   6.66125e-07
  37               3895                   3.01046e-07
  38               4285                   1.12982e-06
  39               4745                   1.67109e-07
  40               5160                   5.86237e-09
  41               5648                   1.7463e-09
  42               6158                   3.41645e-10
  43               6690                   1.65067e-11
  44               7320                   9.54711e-14
  45               7982                   7.81704e-14
  46               8582                   1.91249e-15
  47               9100                   1.98952e-15
  48               9500                   0
  49              10025                   0
  50              10810                   0
  51              11545                   0
  52              12330                   0
  53              13045                   0
  54              13885                   0
  55              14735                   0
*Note that these OLR data are plotted against the midpoints of their intervals
  Interval     *Wavenumber(inv cm)     OLR(W/m^2/cm^-^1)
   1                 20                   0.00232426
   2                 70                   0.0213727
   3                130                   0.0581898
   4                190                   0.100381
   5                250                   0.143853
   6                305                   0.180708
   7                355                   0.213468
   8                410                   0.254369
   9                468                   0.278593
  10                520                   0.299077
  11                581                   0.301019
  12                642                   0.183095
  13                694                   0.164893
  14                760                   0.312348
  15                838                   0.31884
  16                908                   0.289828
  17                970                   0.260106
  18               1032                   0.122708
  19               1086                   0.199201
  20               1154                   0.162208
  21               1238                   0.111981
  22               1312                   0.0675681
  23               1400                   0.0261145
  24               1500                   0.00964955
  25               1600                   0.00759612
  26               1700                   0.00390035
  27               1800                   0.00443858
  28               1900                   0.00558035
  29               2000                   0.00678767
  30               2125                   0.00680228
  31               2298                   0.0021052
  32               2446                   0.0024965
  33               2645                   0.00120103
  34               2942                   0.000262905
  35               3256                   3.09809e-05
  36               3592                   9.20436e-07
  37               3895                   3.01515e-07
  38               4285                   1.12981e-06
  39               4745                   1.78373e-07
  40               5160                   6.65834e-09
  41               5648                   1.74627e-09
  42               6158                   3.476e-10
  43               6690                   1.67683e-11
  44               7320                   9.5428e-14
  45               7982                   7.82131e-14
  46               8582                   3.82498e-15
  47               9100                   0
  48               9500                   0
  49              10025                   0
  50              10810                   0
  51              11545                   0
  52              12330                   0
  53              13045                   0
  54              13885                   0
  55              14735                   0
*Note that these OLR data are plotted against the midpoints of their intervals
  Interval     *Wavenumber(inv cm)     OLR(W/m^2/cm^-^1)
   1                 20                   0.00361518
   2                 70                   0.0399661
   3                130                   0.121344
   4                190                   0.22711
   5                250                   0.342925
   6                305                   0.448465
   7                355                   0.538394
   8                410                   0.62658
   9                468                   0.703734
  10                520                   0.759296
  11                581                   0.805505
  12                642                   0.832595
  13                694                   0.841649
  14                760                   0.836753
  15                838                   0.811259
  16                908                   0.773972
  17                970                   0.732322
  18               1032                   0.685249
  19               1086                   0.641827
  20               1154                   0.585811
  21               1238                   0.516413
  22               1312                   0.456051
  23               1400                   0.389887
  24               1500                   0.321498
  25               1600                   0.26173
  26               1700                   0.210621
  27               1800                   0.167788
  28               1900                   0.132456
  29               2000                   0.103704
  30               2125                   0.0755846
  31               2298                   0.04791
  32               2446                   0.0321233
  33               2645                   0.0183536
  34               2942                   0.00774292
  35               3256                   0.00299809
  36               3592                   0.00105297
  37               3895                   0.000402003
  38               4285                   0.000113225
  39               4745                   2.4592e-05
  40               5160                   6.04583e-06
  41               5648                   1.13636e-06
  42               6158                   1.93484e-07
  43               6690                   2.96507e-08
  44               7320                   3.15238e-09
  45               7982                   8.4213e-08
  46               8582                   3.32167e-11
  47               9100                   5.06611e-12
  48               9500                   2.74912e-06
  49              10025                   1.23212e-08
  50              10810                   9.70497e-15
  51              11545                   5.748e-08
  52              12330                   8.77366e-15
  53              13045                   2.22466e-05
  54              13885                   0
  55              14735                   9.09923e-07
*Note that these OLR data are plotted against the midpoints of their intervals
  Interval     *Wavenumber(inv cm)     OLR(W/m^2/cm^-^1)
   1                 20                   0.00361518
   2                 70                   0.0399661
   3                130                   0.121344
   4                190                   0.22711
   5                250                   0.342925
   6                305                   0.448465
   7                355                   0.538394
   8                410                   0.62658
   9                468                   0.703734
  10                520                   0.759296
  11                581                   0.805505
  12                642                   0.832595
  13                694                   0.841649
  14                760                   0.836753
  15                838                   0.811259
  16                908                   0.773972
  17                970                   0.732322
  18               1032                   0.685249
  19               1086                   0.641827
  20               1154                   0.585811
  21               1238                   0.516413
  22               1312                   0.456051
  23               1400                   0.389887
  24               1500                   0.321498
  25               1600                   0.26173
  26               1700                   0.210621
  27               1800                   0.167788
  28               1900                   0.132456
  29               2000                   0.103704
  30               2125                   0.0755846
  31               2298                   0.04791
  32               2446                   0.0321233
  33               2645                   0.0183536
  34               2942                   0.00774292
  35               3256                   0.00299809
  36               3592                   0.00105297
  37               3895                   0.000402003
  38               4285                   0.000113225
  39               4745                   2.4592e-05
  40               5160                   6.04583e-06
  41               5648                   1.13636e-06
  42               6158                   1.93484e-07
  43               6690                   2.96507e-08
  44               7320                   3.15238e-09
  45               7982                   8.4213e-08
  46               8582                   3.32167e-11
  47               9100                   5.06611e-12
  48               9500                   2.74912e-06
  49              10025                   1.23212e-08
  50              10810                   9.70497e-15
  51              11545                   5.748e-08
  52              12330                   8.77366e-15
  53              13045                   2.22466e-05
  54              13885                   0
  55              14735                   9.09923e-07
*Note that these OLR data are plotted against the midpoints of their intervals
  Interval     *Wavenumber(inv cm)     OLR(W/m^2/cm^-^1)
   1                 20                   0.00361518
   2                 70                   0.0399661
   3                130                   0.121344
   4                190                   0.22711
   5                250                   0.342925
   6                305                   0.448465
   7                355                   0.538394
   8                410                   0.62658
   9                468                   0.703734
  10                520                   0.759296
  11                581                   0.805505
  12                642                   0.832595
  13                694                   0.841649
  14                760                   0.836753
  15                838                   0.811259
  16                908                   0.773972
  17                970                   0.732322
  18               1032                   0.685249
  19               1086                   0.641827
  20               1154                   0.585811
  21               1238                   0.516413
  22               1312                   0.456051
  23               1400                   0.389887
  24               1500                   0.321498
  25               1600                   0.26173
  26               1700                   0.210621
  27               1800                   0.167788
  28               1900                   0.132456
  29               2000                   0.103704
  30               2125                   0.0755846
  31               2298                   0.04791
  32               2446                   0.0321233
  33               2645                   0.0183536
  34               2942                   0.00774292
  35               3256                   0.00299809
  36               3592                   0.00105297
  37               3895                   0.000402003
  38               4285                   0.000113225
  39               4745                   2.4592e-05
  40               5160                   6.04583e-06
  41               5648                   1.13636e-06
  42               6158                   1.93484e-07
  43               6690                   2.96507e-08
  44               7320                   3.15238e-09
  45               7982                   8.4213e-08
  46               8582                   3.32167e-11
  47               9100                   5.06611e-12
  48               9500                   2.74912e-06
  49              10025                   1.23212e-08
  50              10810                   9.70497e-15
  51              11545                   5.748e-08
  52              12330                   8.77366e-15
  53              13045                   2.22466e-05
  54              13885                   0
  55              14735                   9.09923e-07
*Note that these OLR data are plotted against the midpoints of their intervals
  Interval     *Wavenumber(inv cm)     OLR(W/m^2/cm^-^1)
   1                 20                   0.00361518
   2                 70                   0.0399661
   3                130                   0.121344
   4                190                   0.22711
   5                250                   0.342925
   6                305                   0.448465
   7                355                   0.538394
   8                410                   0.62658
   9                468                   0.703734
  10                520                   0.759296
  11                581                   0.805505
  12                642                   0.832595
  13                694                   0.841649
  14                760                   0.836753
  15                838                   0.811259
  16                908                   0.773972
  17                970                   0.732322
  18               1032                   0.685249
  19               1086                   0.641827
  20               1154                   0.585811
  21               1238                   0.516413
  22               1312                   0.456051
  23               1400                   0.389887
  24               1500                   0.321498
  25               1600                   0.26173
  26               1700                   0.210621
  27               1800                   0.167788
  28               1900                   0.132456
  29               2000                   0.103704
  30               2125                   0.0755846
  31               2298                   0.04791
  32               2446                   0.0321233
  33               2645                   0.0183536
  34               2942                   0.00774292
  35               3256                   0.00299809
  36               3592                   0.00105297
  37               3895                   0.000402003
  38               4285                   0.000113225
  39               4745                   2.4592e-05
  40               5160                   6.04583e-06
  41               5648                   1.13636e-06
  42               6158                   1.93484e-07
  43               6690                   2.96507e-08
  44               7320                   3.15238e-09
  45               7982                   8.4213e-08
  46               8582                   3.32167e-11
  47               9100                   5.06611e-12
  48               9500                   2.74912e-06
  49              10025                   1.23212e-08
  50              10810                   9.70497e-15
  51              11545                   5.748e-08
  52              12330                   8.77366e-15
  53              13045                   2.22466e-05
  54              13885                   0
  55              14735                   9.09923e-07
*Note that these OLR data are plotted against the midpoints of their intervals
  Interval     *Wavenumber(inv cm)     OLR(W/m^2/cm^-^1)
   1                 20                   0.00361518
   2                 70                   0.0399661
   3                130                   0.121344
   4                190                   0.22711
   5                250                   0.342925
   6                305                   0.448465
   7                355                   0.538394
   8                410                   0.62658
   9                468                   0.703734
  10                520                   0.759296
  11                581                   0.805505
  12                642                   0.832595
  13                694                   0.841649
  14                760                   0.836753
  15                838                   0.811259
  16                908                   0.773972
  17                970                   0.732322
  18               1032                   0.685249
  19               1086                   0.641827
  20               1154                   0.585811
  21               1238                   0.516413
  22               1312                   0.456051
  23               1400                   0.389887
  24               1500                   0.321498
  25               1600                   0.26173
  26               1700                   0.210621
  27               1800                   0.167788
  28               1900                   0.132456
  29               2000                   0.103704
  30               2125                   0.0755846
  31               2298                   0.04791
  32               2446                   0.0321233
  33               2645                   0.0183536
  34               2942                   0.00774292
  35               3256                   0.00299809
  36               3592                   0.00105297
  37               3895                   0.000402003
  38               4285                   0.000113225
  39               4745                   2.4592e-05
  40               5160                   6.04583e-06
  41               5648                   1.13636e-06
  42               6158                   1.93484e-07
  43               6690                   2.96507e-08
  44               7320                   3.15238e-09
  45               7982                   8.4213e-08
  46               8582                   3.32167e-11
  47               9100                   5.06611e-12
  48               9500                   2.74912e-06
  49              10025                   1.23212e-08
  50              10810                   9.70497e-15
  51              11545                   5.748e-08
  52              12330                   8.77366e-15
  53              13045                   2.22466e-05
  54              13885                   0
  55              14735                   9.09923e-07
*Note that these OLR data are plotted against the midpoints of their intervals
  Interval     *Wavenumber(inv cm)     OLR(W/m^2/cm^-^1)
   1                 20                   0.00361518
   2                 70                   0.0399661
   3                130                   0.121344
   4                190                   0.22711
   5                250                   0.342925
   6                305                   0.448465
   7                355                   0.538394
   8                410                   0.62658
   9                468                   0.703734
  10                520                   0.759296
  11                581                   0.805505
  12                642                   0.832595
  13                694                   0.841649
  14                760                   0.836753
  15                838                   0.811259
  16                908                   0.773972
  17                970                   0.732322
  18               1032                   0.685249
  19               1086                   0.641827
  20               1154                   0.585811
  21               1238                   0.516413
  22               1312                   0.456051
  23               1400                   0.389887
  24               1500                   0.321498
  25               1600                   0.26173
  26               1700                   0.210621
  27               1800                   0.167788
  28               1900                   0.132456
  29               2000                   0.103704
  30               2125                   0.0755846
  31               2298                   0.04791
  32               2446                   0.0321233
  33               2645                   0.0183536
  34               2942                   0.00774292
  35               3256                   0.00299809
  36               3592                   0.00105297
  37               3895                   0.000402003
  38               4285                   0.000113225
  39               4745                   2.4592e-05
  40               5160                   6.04583e-06
  41               5648                   1.13636e-06
  42               6158                   1.93484e-07
  43               6690                   2.96507e-08
  44               7320                   3.15238e-09
  45               7982                   8.4213e-08
  46               8582                   3.32167e-11
  47               9100                   5.06611e-12
  48               9500                   2.74912e-06
  49              10025                   1.23212e-08
  50              10810                   9.70497e-15
  51              11545                   5.748e-08
  52              12330                   8.77366e-15
  53              13045                   2.22466e-05
  54              13885                   0
  55              14735                   9.09923e-07
*Note that these OLR data are plotted against the midpoints of their intervals
  Interval     *Wavenumber(inv cm)     OLR(W/m^2/cm^-^1)
   1                 20                   0.00361518
   2                 70                   0.0399661
   3                130                   0.121344
   4                190                   0.22711
   5                250                   0.342925
   6                305                   0.448465
   7                355                   0.538394
   8                410                   0.62658
   9                468                   0.703734
  10                520                   0.759296
  11                581                   0.805505
  12                642                   0.832595
  13                694                   0.841649
  14                760                   0.836753
  15                838                   0.811259
  16                908                   0.773972
  17                970                   0.732322
  18               1032                   0.685249
  19               1086                   0.641827
  20               1154                   0.585811
  21               1238                   0.516413
  22               1312                   0.456051
  23               1400                   0.389887
  24               1500                   0.321498
  25               1600                   0.26173
  26               1700                   0.210621
  27               1800                   0.167788
  28               1900                   0.132456
  29               2000                   0.103704
  30               2125                   0.0755846
  31               2298                   0.04791
  32               2446                   0.0321233
  33               2645                   0.0183536
  34               2942                   0.00774292
  35               3256                   0.00299809
  36               3592                   0.00105297
  37               3895                   0.000402003
  38               4285                   0.000113225
  39               4745                   2.4592e-05
  40               5160                   6.04583e-06
  41               5648                   1.13636e-06
  42               6158                   1.93484e-07
  43               6690                   2.96507e-08
  44               7320                   3.15238e-09
  45               7982                   8.4213e-08
  46               8582                   3.32167e-11
  47               9100                   5.06611e-12
  48               9500                   2.74912e-06
  49              10025                   1.23212e-08
  50              10810                   9.70497e-15
  51              11545                   5.748e-08
  52              12330                   8.77366e-15
  53              13045                   2.22466e-05
  54              13885                   0
  55              14735                   9.09923e-07
*Note that these OLR data are plotted against the midpoints of their intervals
  Interval     *Wavenumber(inv cm)     OLR(W/m^2/cm^-^1)
   1                 20                   0.00361518
   2                 70                   0.0399661
   3                130                   0.121344
   4                190                   0.22711
   5                250                   0.342925
   6                305                   0.448465
   7                355                   0.538394
   8                410                   0.62658
   9                468                   0.703734
  10                520                   0.759296
  11                581                   0.805505
  12                642                   0.832595
  13                694                   0.841649
  14                760                   0.836753
  15                838                   0.811259
  16                908                   0.773972
  17                970                   0.732322
  18               1032                   0.685249
  19               1086                   0.641827
  20               1154                   0.585811
  21               1238                   0.516413
  22               1312                   0.456051
  23               1400                   0.389887
  24               1500                   0.321498
  25               1600                   0.26173
  26               1700                   0.210621
  27               1800                   0.167788
  28               1900                   0.132456
  29               2000                   0.103704
  30               2125                   0.0755846
  31               2298                   0.04791
  32               2446                   0.0321233
  33               2645                   0.0183536
  34               2942                   0.00774292
  35               3256                   0.00299809
  36               3592                   0.00105297
  37               3895                   0.000402003
  38               4285                   0.000113225
  39               4745                   2.4592e-05
  40               5160                   6.04583e-06
  41               5648                   1.13636e-06
  42               6158                   1.93484e-07
  43               6690                   2.96507e-08
  44               7320                   3.15238e-09
  45               7982                   8.4213e-08
  46               8582                   3.32167e-11
  47               9100                   5.06611e-12
  48               9500                   2.74912e-06
  49              10025                   1.23212e-08
  50              10810                   9.70497e-15
  51              11545                   5.748e-08
  52              12330                   8.77366e-15
  53              13045                   2.22466e-05
  54              13885                   0
  55              14735                   9.09923e-07
*Note that these OLR data are plotted against the midpoints of their intervals
  Interval     *Wavenumber(inv cm)     OLR(W/m^2/cm^-^1)
   1                 20                   0.00361518
   2                 70                   0.0399661
   3                130                   0.121344
   4                190                   0.22711
   5                250                   0.342925
   6                305                   0.448465
   7                355                   0.538394
   8                410                   0.62658
   9                468                   0.703734
  10                520                   0.759296
  11                581                   0.805505
  12                642                   0.832595
  13                694                   0.841649
  14                760                   0.836753
  15                838                   0.811259
  16                908                   0.773972
  17                970                   0.732322
  18               1032                   0.685249
  19               1086                   0.641827
  20               1154                   0.585811
  21               1238                   0.516413
  22               1312                   0.456051
  23               1400                   0.389887
  24               1500                   0.321498
  25               1600                   0.26173
  26               1700                   0.210621
  27               1800                   0.167788
  28               1900                   0.132456
  29               2000                   0.103704
  30               2125                   0.0755846
  31               2298                   0.04791
  32               2446                   0.0321233
  33               2645                   0.0183536
  34               2942                   0.00774292
  35               3256                   0.00299809
  36               3592                   0.00105297
  37               3895                   0.000402003
  38               4285                   0.000113225
  39               4745                   2.4592e-05
  40               5160                   6.04583e-06
  41               5648                   1.13636e-06
  42               6158                   1.93484e-07
  43               6690                   2.96507e-08
  44               7320                   3.15238e-09
  45               7982                   8.4213e-08
  46               8582                   3.32167e-11
  47               9100                   5.06611e-12
  48               9500                   2.74912e-06
  49              10025                   1.23212e-08
  50              10810                   9.70497e-15
  51              11545                   5.748e-08
  52              12330                   8.77366e-15
  53              13045                   2.22466e-05
  54              13885                   0
  55              14735                   9.09923e-07
*Note that these OLR data are plotted against the midpoints of their intervals
  Interval     *Wavenumber(inv cm)     OLR(W/m^2/cm^-^1)
   1                 20                   0.00361518
   2                 70                   0.0399661
   3                130                   0.121344
   4                190                   0.22711
   5                250                   0.342925
   6                305                   0.448465
   7                355                   0.538394
   8                410                   0.62658
   9                468                   0.703734
  10                520                   0.759296
  11                581                   0.805505
  12                642                   0.832595
  13                694                   0.841649
  14                760                   0.836753
  15                838                   0.811259
  16                908                   0.773972
  17                970                   0.732322
  18               1032                   0.685249
  19               1086                   0.641827
  20               1154                   0.585811
  21               1238                   0.516413
  22               1312                   0.456051
  23               1400                   0.389887
  24               1500                   0.321498
  25               1600                   0.26173
  26               1700                   0.210621
  27               1800                   0.167788
  28               1900                   0.132456
  29               2000                   0.103704
  30               2125                   0.0755846
  31               2298                   0.04791
  32               2446                   0.0321233
  33               2645                   0.0183536
  34               2942                   0.00774292
  35               3256                   0.00299809
  36               3592                   0.00105297
  37               3895                   0.000402003
  38               4285                   0.000113225
  39               4745                   2.4592e-05
  40               5160                   6.04583e-06
  41               5648                   1.13636e-06
  42               6158                   1.93484e-07
  43               6690                   2.96507e-08
  44               7320                   3.15238e-09
  45               7982                   8.4213e-08
  46               8582                   3.32167e-11
  47               9100                   5.06611e-12
  48               9500                   2.74912e-06
  49              10025                   1.23212e-08
  50              10810                   9.70497e-15
  51              11545                   5.748e-08
  52              12330                   8.77366e-15
  53              13045                   2.22466e-05
  54              13885                   0
  55              14735                   9.09923e-07
*Note that these OLR data are plotted against the midpoints of their intervals
  Interval     *Wavenumber(inv cm)     OLR(W/m^2/cm^-^1)
   1                 20                   0.00361518
   2                 70                   0.0399661
   3                130                   0.121344
   4                190                   0.22711
   5                250                   0.342925
   6                305                   0.448465
   7                355                   0.538394
   8                410                   0.62658
   9                468                   0.703734
  10                520                   0.759296
  11                581                   0.805505
  12                642                   0.832595
  13                694                   0.841649
  14                760                   0.836753
  15                838                   0.811259
  16                908                   0.773972
  17                970                   0.732322
  18               1032                   0.685249
  19               1086                   0.641827
  20               1154                   0.585811
  21               1238                   0.516413
  22               1312                   0.456051
  23               1400                   0.389887
  24               1500                   0.321498
  25               1600                   0.26173
  26               1700                   0.210621
  27               1800                   0.167788
  28               1900                   0.132456
  29               2000                   0.103704
  30               2125                   0.0755846
  31               2298                   0.04791
  32               2446                   0.0321233
  33               2645                   0.0183536
  34               2942                   0.00774292
  35               3256                   0.00299809
  36               3592                   0.00105297
  37               3895                   0.000402003
  38               4285                   0.000113225
  39               4745                   2.4592e-05
  40               5160                   6.04583e-06
  41               5648                   1.13636e-06
  42               6158                   1.93484e-07
  43               6690                   2.96507e-08
  44               7320                   3.15238e-09
  45               7982                   8.4213e-08
  46               8582                   3.32167e-11
  47               9100                   5.06611e-12
  48               9500                   2.74912e-06
  49              10025                   1.23212e-08
  50              10810                   9.70497e-15
  51              11545                   5.748e-08
  52              12330                   8.77366e-15
  53              13045                   2.22466e-05
  54              13885                   0
  55              14735                   9.09923e-07
*Note that these OLR data are plotted against the midpoints of their intervals
  Interval     *Wavenumber(inv cm)     OLR(W/m^2/cm^-^1)
   1                 20                   0.00361518
   2                 70                   0.0399661
   3                130                   0.121344
   4                190                   0.22711
   5                250                   0.342925
   6                305                   0.448465
   7                355                   0.538394
   8                410                   0.62658
   9                468                   0.703734
  10                520                   0.759296
  11                581                   0.805505
  12                642                   0.832595
  13                694                   0.841649
  14                760                   0.836753
  15                838                   0.811259
  16                908                   0.773972
  17                970                   0.732322
  18               1032                   0.685249
  19               1086                   0.641827
  20               1154                   0.585811
  21               1238                   0.516413
  22               1312                   0.456051
  23               1400                   0.389887
  24               1500                   0.321498
  25               1600                   0.26173
  26               1700                   0.210621
  27               1800                   0.167788
  28               1900                   0.132456
  29               2000                   0.103704
  30               2125                   0.0755846
  31               2298                   0.04791
  32               2446                   0.0321233
  33               2645                   0.0183536
  34               2942                   0.00774292
  35               3256                   0.00299809
  36               3592                   0.00105297
  37               3895                   0.000402003
  38               4285                   0.000113225
  39               4745                   2.4592e-05
  40               5160                   6.04583e-06
  41               5648                   1.13636e-06
  42               6158                   1.93484e-07
  43               6690                   2.96507e-08
  44               7320                   3.15238e-09
  45               7982                   8.4213e-08
  46               8582                   3.32167e-11
  47               9100                   5.06611e-12
  48               9500                   2.74912e-06
  49              10025                   1.23212e-08
  50              10810                   9.70497e-15
  51              11545                   5.748e-08
  52              12330                   8.77366e-15
  53              13045                   2.22466e-05
  54              13885                   0
  55              14735                   9.09923e-07
*Note that these OLR data are plotted against the midpoints of their intervals
  Interval     *Wavenumber(inv cm)     OLR(W/m^2/cm^-^1)
   1                 20                   0.00361518
   2                 70                   0.0399661
   3                130                   0.121344
   4                190                   0.22711
   5                250                   0.342925
   6                305                   0.448465
   7                355                   0.538394
   8                410                   0.62658
   9                468                   0.703734
  10                520                   0.759296
  11                581                   0.805505
  12                642                   0.832595
  13                694                   0.841649
  14                760                   0.836753
  15                838                   0.811259
  16                908                   0.773972
  17                970                   0.732322
  18               1032                   0.685249
  19               1086                   0.641827
  20               1154                   0.585811
  21               1238                   0.516413
  22               1312                   0.456051
  23               1400                   0.389887
  24               1500                   0.321498
  25               1600                   0.26173
  26               1700                   0.210621
  27               1800                   0.167788
  28               1900                   0.132456
  29               2000                   0.103704
  30               2125                   0.0755846
  31               2298                   0.04791
  32               2446                   0.0321233
  33               2645                   0.0183536
  34               2942                   0.00774292
  35               3256                   0.00299809
  36               3592                   0.00105297
  37               3895                   0.000402003
  38               4285                   0.000113225
  39               4745                   2.4592e-05
  40               5160                   6.04583e-06
  41               5648                   1.13636e-06
  42               6158                   1.93484e-07
  43               6690                   2.96507e-08
  44               7320                   3.15238e-09
  45               7982                   8.4213e-08
  46               8582                   3.32167e-11
  47               9100                   5.06611e-12
  48               9500                   2.74912e-06
  49              10025                   1.23212e-08
  50              10810                   9.70497e-15
  51              11545                   5.748e-08
  52              12330                   8.77366e-15
  53              13045                   2.22466e-05
  54              13885                   0
  55              14735                   9.09923e-07
*Note that these OLR data are plotted against the midpoints of their intervals
  Interval     *Wavenumber(inv cm)     OLR(W/m^2/cm^-^1)
   1                 20                   0.00361518
   2                 70                   0.0399661
   3                130                   0.121344
   4                190                   0.22711
   5                250                   0.342925
   6                305                   0.448465
   7                355                   0.538394
   8                410                   0.62658
   9                468                   0.703734
  10                520                   0.759296
  11                581                   0.805505
  12                642                   0.832595
  13                694                   0.841649
  14                760                   0.836753
  15                838                   0.811259
  16                908                   0.773972
  17                970                   0.732322
  18               1032                   0.685249
  19               1086                   0.641827
  20               1154                   0.585811
  21               1238                   0.516413
  22               1312                   0.456051
  23               1400                   0.389887
  24               1500                   0.321498
  25               1600                   0.26173
  26               1700                   0.210621
  27               1800                   0.167788
  28               1900                   0.132456
  29               2000                   0.103704
  30               2125                   0.0755846
  31               2298                   0.04791
  32               2446                   0.0321233
  33               2645                   0.0183536
  34               2942                   0.00774292
  35               3256                   0.00299809
  36               3592                   0.00105297
  37               3895                   0.000402003
  38               4285                   0.000113225
  39               4745                   2.4592e-05
  40               5160                   6.04583e-06
  41               5648                   1.13636e-06
  42               6158                   1.93484e-07
  43               6690                   2.96507e-08
  44               7320                   3.15238e-09
  45               7982                   8.4213e-08
  46               8582                   3.32167e-11
  47               9100                   5.06611e-12
  48               9500                   2.74912e-06
  49              10025                   1.23212e-08
  50              10810                   9.70497e-15
  51              11545                   5.748e-08
  52              12330                   8.77366e-15
  53              13045                   2.22466e-05
  54              13885                   0
  55              14735                   9.09923e-07
*Note that these OLR data are plotted against the midpoints of their intervals
  Interval     *Wavenumber(inv cm)     OLR(W/m^2/cm^-^1)
   1                 20                   0.00361518
   2                 70                   0.0399661
   3                130                   0.121344
   4                190                   0.22711
   5                250                   0.342925
   6                305                   0.448465
   7                355                   0.538394
   8                410                   0.62658
   9                468                   0.703734
  10                520                   0.759296
  11                581                   0.805505
  12                642                   0.832595
  13                694                   0.841649
  14                760                   0.836753
  15                838                   0.811259
  16                908                   0.773972
  17                970                   0.732322
  18               1032                   0.685249
  19               1086                   0.641827
  20               1154                   0.585811
  21               1238                   0.516413
  22               1312                   0.456051
  23               1400                   0.389887
  24               1500                   0.321498
  25               1600                   0.26173
  26               1700                   0.210621
  27               1800                   0.167788
  28               1900                   0.132456
  29               2000                   0.103704
  30               2125                   0.0755846
  31               2298                   0.04791
  32               2446                   0.0321233
  33               2645                   0.0183536
  34               2942                   0.00774292
  35               3256                   0.00299809
  36               3592                   0.00105297
  37               3895                   0.000402003
  38               4285                   0.000113225
  39               4745                   2.4592e-05
  40               5160                   6.04583e-06
  41               5648                   1.13636e-06
  42               6158                   1.93484e-07
  43               6690                   2.96507e-08
  44               7320                   3.15238e-09
  45               7982                   8.4213e-08
  46               8582                   3.32167e-11
  47               9100                   5.06611e-12
  48               9500                   2.74912e-06
  49              10025                   1.23212e-08
  50              10810                   9.70497e-15
  51              11545                   5.748e-08
  52              12330                   8.77366e-15
  53              13045                   2.22466e-05
  54              13885                   0
  55              14735                   9.09923e-07
*Note that these OLR data are plotted against the midpoints of their intervals
